Filter Al-poly
observation_date 07Jan2024
wavelength effective area
      1.00000   2.78456e-10
      1.10000   7.94908e-10
      1.20000   2.06646e-09
      1.30000   4.94127e-09
      1.40000   1.12120e-08
      1.50000   2.39194e-08
      1.60000   4.84218e-08
      1.70000   9.40035e-08
      1.80000   1.75008e-07
      1.90000   3.14541e-07
      2.00000   5.46825e-07
      2.10000   9.23612e-07
      2.20000   1.52294e-06
      2.30000   2.44814e-06
      2.40000   3.84346e-06
      2.50000   5.87384e-06
      2.60000   8.96408e-06
      2.70000   1.33647e-05
      2.80000   1.95448e-05
      2.90000   2.82890e-05
      3.00000   4.03067e-05
      3.10000   5.66921e-05
      3.20000   7.88685e-05
      3.30000   0.000108605
      3.40000   0.000147996
      3.50000   0.000199726
      3.60000   0.000268299
      3.70000   0.000356593
      3.80000   0.000471987
      3.90000   0.000621266
      4.00000   0.000812682
      4.10000    0.00105817
      4.20000    0.00137290
      4.30000    0.00177622
      4.40000    0.00229195
      4.50000    0.00294934
      4.60000    0.00378263
      4.70000    0.00485129
      4.80000    0.00621567
      4.90000    0.00786150
      5.00000     0.0102052
      5.10000     0.0130612
      5.20000     0.0167666
      5.30000     0.0213414
      5.40000     0.0271218
      5.50000     0.0345292
      5.60000     0.0426122
      5.70000     0.0554035
      5.80000     0.0649697
      5.90000     0.0992267
      6.00000      0.133425
      6.10000      0.170586
      6.20000      0.209566
      6.30000      0.246784
      6.40000      0.278766
      6.50000      0.302373
      6.60000      0.313145
      6.70000      0.323084
      6.80000      0.323687
      6.90000      0.424892
      7.00000      0.462340
      7.10000      0.489276
      7.20000      0.510795
      7.30000      0.528489
      7.40000      0.542134
      7.50000      0.553116
      7.60000      0.561544
      7.70000      0.565925
      7.80000      0.565147
      7.90000      0.565062
      8.00000      0.953726
      8.10000       1.04941
      8.20000       1.07214
      8.30000       1.09025
      8.40000       1.10433
      8.50000       1.11685
      8.60000       1.12747
      8.70000       1.13688
      8.80000       1.14471
      8.90000       1.15151
      9.00000       1.15719
      9.10000       1.16177
      9.20000       1.16547
      9.30000       1.16818
      9.40000       1.17006
      9.50000       1.17115
      9.60000       1.17140
      9.70000       1.17091
      9.80000       1.16982
      9.90000       1.16816
      10.0000       1.16598
      10.1000       1.16329
      10.2000       1.16014
      10.3000       1.15644
      10.4000       1.15223
      10.5000       1.14753
      10.6000       1.14240
      10.7000       1.13683
      10.8000       1.13084
      10.9000       1.12446
      11.0000       1.11769
      11.1000       1.11058
      11.2000       1.10312
      11.3000       1.09535
      11.4000       1.08726
      11.5000       1.07882
      11.6000       1.07006
      11.7000       1.06089
      11.8000       1.05141
      11.9000       1.04144
      12.0000       1.02988
      12.1000       1.02194
      12.2000       1.03184
      12.3000       1.03093
      12.4000       1.02237
      12.5000       1.01301
      12.6000       1.00324
      12.7000      0.993233
      12.8000      0.983028
      12.9000      0.972641
      13.0000      0.962129
      13.1000      0.951528
      13.2000      0.940863
      13.3000      0.930152
      13.4000      0.919422
      13.5000      0.908832
      13.6000      0.898352
      13.7000      0.887873
      13.8000      0.877385
      13.9000      0.866925
      14.0000      0.856488
      14.1000      0.846048
      14.2000      0.835605
      14.3000      0.825150
      14.4000      0.814653
      14.5000      0.804128
      14.6000      0.793557
      14.7000      0.782953
      14.8000      0.772327
      14.9000      0.761682
      15.0000      0.751033
      15.1000      0.740404
      15.2000      0.729795
      15.3000      0.719214
      15.4000      0.708662
      15.5000      0.698150
      15.6000      0.687723
      15.7000      0.677338
      15.8000      0.667050
      15.9000      0.656856
      16.0000      0.646749
      16.1000      0.636742
      16.2000      0.626854
      16.3000      0.617035
      16.4000      0.607290
      16.5000      0.597611
      16.6000      0.587991
      16.7000      0.578430
      16.8000      0.568929
      16.9000      0.559488
      17.0000      0.550110
      17.1000      0.540791
      17.2000      0.531527
      17.3000      0.522330
      17.4000      0.513336
      17.5000      0.504577
      17.6000      0.495986
      17.7000      0.487636
      17.8000      0.479648
      17.9000      0.471744
      18.0000      0.463853
      18.1000      0.456006
      18.2000      0.448151
      18.3000      0.440255
      18.4000      0.432275
      18.5000      0.424242
      18.6000      0.416142
      18.7000      0.407915
      18.8000      0.399749
      18.9000      0.391650
      19.0000      0.383616
      19.1000      0.375685
      19.2000      0.367850
      19.3000      0.360133
      19.4000      0.352538
      19.5000      0.345053
      19.6000      0.337737
      19.7000      0.330523
      19.8000      0.323408
      19.9000      0.316430
      20.0000      0.309533
      20.1000      0.302721
      20.2000      0.295977
      20.3000      0.289299
      20.4000      0.282712
      20.5000      0.276178
      20.6000      0.269699
      20.7000      0.263298
      20.8000      0.256952
      20.9000      0.250649
      21.0000      0.244414
      21.1000      0.238252
      21.2000      0.232093
      21.3000      0.225986
      21.4000      0.219951
      21.5000      0.213920
      21.6000      0.207886
      21.7000      0.201864
      21.8000      0.195874
      21.9000      0.189669
      22.0000      0.183452
      22.1000      0.177121
      22.2000      0.170413
      22.3000      0.163393
      22.4000      0.153748
      22.5000      0.143362
      22.6000      0.122116
      22.7000      0.111660
      22.8000      0.153131
      22.9000      0.205003
      23.0000      0.261826
      23.1000      0.298464
      23.2000      0.315289
      23.3000      0.319039
      23.4000      0.315960
      23.5000      0.312453
      23.6000      0.308860
      23.7000      0.304419
      23.8000      0.299935
      23.9000      0.295335
      24.0000      0.290734
      24.1000      0.285928
      24.2000      0.281147
      24.3000      0.276362
      24.4000      0.271589
      24.5000      0.266788
      24.6000      0.262024
      24.7000      0.257298
      24.8000      0.252606
      24.9000      0.247945
      25.0000      0.243329
      25.1000      0.238765
      25.2000      0.234243
      25.3000      0.229768
      25.4000      0.225343
      25.5000      0.220981
      25.6000      0.216680
      25.7000      0.212450
      25.8000      0.208267
      25.9000      0.204151
      26.0000      0.200076
      26.1000      0.196062
      26.2000      0.192088
      26.3000      0.188188
      26.4000      0.184324
      26.5000      0.180524
      26.6000      0.176758
      26.7000      0.173068
      26.8000      0.169424
      26.9000      0.165830
      27.0000      0.162273
      27.1000      0.158738
      27.2000      0.155230
      27.3000      0.152111
      27.4000      0.149462
      27.5000      0.146715
      27.6000      0.143649
      27.7000      0.140609
      27.8000      0.137543
      27.9000      0.134508
      28.0000      0.131543
      28.1000      0.128614
      28.2000      0.125752
      28.3000      0.122941
      28.4000      0.120177
      28.5000      0.117477
      28.6000      0.114810
      28.7000      0.112253
      28.8000      0.109721
      28.9000      0.107250
      29.0000      0.104814
      29.1000      0.102424
      29.2000      0.100080
      29.3000     0.0977670
      29.4000     0.0955161
      29.5000     0.0932888
      29.6000     0.0911188
      29.7000     0.0889803
      29.8000     0.0868829
      29.9000     0.0848327
      30.0000     0.0828060
      30.1000     0.0808405
      30.2000     0.0788959
      30.3000     0.0801134
      30.4000     0.0830992
      30.5000     0.0849992
      30.6000     0.0830249
      30.7000     0.0810719
      30.8000     0.0791709
      30.9000     0.0772999
      31.0000     0.0754613
      31.1000     0.0736698
      31.2000     0.0718980
      31.3000     0.0701775
      31.4000     0.0684830
      31.5000     0.0668194
      31.6000     0.0651997
      31.7000     0.0635982
      31.8000     0.0620444
      31.9000     0.0605157
      32.0000     0.0590136
      32.1000     0.0575554
      32.2000     0.0561141
      32.3000     0.0547143
      32.4000     0.0533417
      32.5000     0.0519919
      32.6000     0.0507115
      32.7000     0.0494501
      32.8000     0.0482201
      32.9000     0.0470183
      33.0000     0.0458305
      33.1000     0.0447178
      33.2000     0.0436307
      33.3000     0.0425649
      33.4000     0.0415287
      33.5000     0.0405050
      33.6000     0.0395093
      33.7000     0.0385364
      33.8000     0.0375746
      33.9000     0.0366471
      34.0000     0.0357334
      34.1000     0.0348388
      34.2000     0.0339697
      34.3000     0.0331104
      34.4000     0.0322716
      34.5000     0.0314560
      34.6000     0.0306498
      34.7000     0.0298537
      34.8000     0.0290672
      34.9000     0.0282898
      35.0000     0.0275437
      35.1000     0.0268086
      35.2000     0.0260845
      35.3000     0.0253898
      35.4000     0.0247032
      35.5000     0.0240313
      35.6000     0.0233833
      35.7000     0.0227430
      35.8000     0.0221199
      35.9000     0.0215163
      36.0000     0.0209198
      36.1000     0.0203424
      36.2000     0.0197806
      36.3000     0.0192256
      36.4000     0.0186909
      36.5000     0.0181687
      36.6000     0.0176529
      36.7000     0.0171579
      36.8000     0.0166731
      36.9000     0.0161944
      37.0000     0.0157364
      37.1000     0.0152870
      37.2000     0.0148431
      37.3000     0.0144197
      37.4000     0.0140036
      37.5000     0.0135927
      37.6000     0.0132014
      37.7000     0.0128165
      37.8000     0.0124365
      37.9000     0.0120749
      38.0000     0.0117196
      38.1000     0.0113688
      38.2000     0.0110348
      38.3000     0.0107071
      38.4000     0.0103835
      38.5000     0.0100750
      38.6000    0.00977313
      38.7000    0.00947512
      38.8000    0.00919026
      38.9000    0.00891257
      39.0000    0.00863847
      39.1000    0.00837548
      39.2000    0.00812044
      39.3000    0.00786875
      39.4000    0.00762594
      39.5000    0.00739197
      39.6000    0.00716111
      39.7000    0.00693693
      39.8000    0.00672273
      39.9000    0.00651138
      40.0000    0.00630445
      40.1000    0.00610854
      40.2000    0.00591525
      40.3000    0.00572460
      40.4000    0.00554528
      40.5000    0.00536880
      40.6000    0.00519472
      40.7000    0.00502918
      40.8000    0.00486823
      40.9000    0.00470948
      41.0000    0.00455661
      41.1000    0.00441001
      41.2000    0.00426546
      41.3000    0.00412437
      41.4000    0.00399132
      41.5000    0.00386009
      41.6000    0.00373070
      41.7000    0.00360904
      41.8000    0.00348992
      41.9000    0.00337247
      42.0000    0.00326018
      42.1000    0.00315234
      42.2000    0.00304602
      42.3000    0.00294223
      42.4000    0.00284467
      42.5000    0.00274848
      42.6000    0.00265365
      42.7000    0.00256436
      42.8000    0.00247746
      42.9000    0.00239179
      43.0000    0.00230920
      43.1000    0.00223085
      43.2000    0.00215363
      43.3000    0.00207753
      43.4000    0.00656671
      43.5000     0.0152073
      43.6000     0.0325456
      43.7000     0.0570742
      43.8000     0.0757314
      43.9000     0.0792896
      44.0000     0.0769485
      44.1000     0.0691425
      44.2000     0.0674367
      44.3000     0.0662549
      44.4000     0.0650967
      44.5000     0.0639684
      44.6000     0.0628438
      44.7000     0.0617229
      44.8000     0.0606444
      44.9000     0.0595750
      45.0000     0.0585091
      45.1000     0.0574593
      45.2000     0.0564437
      45.3000     0.0554314
      45.4000     0.0544224
      45.5000     0.0534451
      45.6000     0.0524844
      45.7000     0.0515270
      45.8000     0.0505742
      45.9000     0.0496640
      46.0000     0.0487566
      46.1000     0.0478523
      46.2000     0.0470052
      46.3000     0.0462545
      46.4000     0.0455064
      46.5000     0.0447606
      46.6000     0.0440512
      46.7000     0.0433611
      46.8000     0.0426733
      46.9000     0.0419877
      47.0000     0.0413503
      47.1000     0.0407181
      47.2000     0.0400879
      47.3000     0.0394648
      47.4000     0.0388674
      47.5000     0.0382720
      47.6000     0.0376785
      47.7000     0.0370957
      47.8000     0.0365286
      47.9000     0.0359634
      48.0000     0.0354001
      48.1000     0.0348512
      48.2000     0.0343137
      48.3000     0.0337779
      48.4000     0.0332439
      48.5000     0.0327265
      48.6000     0.0322167
      48.7000     0.0317086
      48.8000     0.0312021
      48.9000     0.0307146
      49.0000     0.0302321
      49.1000     0.0297512
      49.2000     0.0292720
      49.3000     0.0288126
      49.4000     0.0283562
      49.5000     0.0279014
      49.6000     0.0274481
      49.7000     0.0270148
      49.8000     0.0265833
      49.9000     0.0261533
      50.0000     0.0257251
      50.1000     0.0253125
      50.2000     0.0249114
      50.3000     0.0245154
      50.4000     0.0241251
      50.5000     0.0237408
      50.6000     0.0233621
      50.7000     0.0229887
      50.8000     0.0226200
      50.9000     0.0222572
      51.0000     0.0219003
      51.1000     0.0215492
      51.2000     0.0212029
      51.3000     0.0208614
      51.4000     0.0205257
      51.5000     0.0201945
      51.6000     0.0198677
      51.7000     0.0195454
      51.8000     0.0192256
      51.9000     0.0189103
      52.0000     0.0185998
      52.1000     0.0182942
      52.2000     0.0179926
      52.3000     0.0176949
      52.4000     0.0174024
      52.5000     0.0171142
      52.6000     0.0168297
      52.7000     0.0165488
      52.8000     0.0162718
      52.9000     0.0159993
      53.0000     0.0157310
      53.1000     0.0154667
      53.2000     0.0152066
      53.3000     0.0149502
      53.4000     0.0146977
      53.5000     0.0144490
      53.6000     0.0142037
      53.7000     0.0139620
      53.8000     0.0137242
      53.9000     0.0134900
      54.0000     0.0132597
      54.1000     0.0130334
      54.2000     0.0128100
      54.3000     0.0125896
      54.4000     0.0123729
      54.5000     0.0121595
      54.6000     0.0119495
      54.7000     0.0117429
      54.8000     0.0115395
      54.9000     0.0113392
      55.0000     0.0111421
      55.1000     0.0109480
      55.2000     0.0107474
      55.3000     0.0105414
      55.4000     0.0103386
      55.5000     0.0101391
      55.6000    0.00994323
      55.7000    0.00975080
      55.8000    0.00956152
      55.9000    0.00937561
      56.0000    0.00919413
      56.1000    0.00901231
      56.2000    0.00883070
      56.3000    0.00865268
      56.4000    0.00847773
      56.5000    0.00830567
      56.6000    0.00813663
      56.7000    0.00797084
      56.8000    0.00780799
      56.9000    0.00764836
      57.0000    0.00749194
      57.1000    0.00733838
      57.2000    0.00718731
      57.3000    0.00703872
      57.4000    0.00689311
      57.5000    0.00675032
      57.6000    0.00661010
      57.7000    0.00647236
      57.8000    0.00633742
      57.9000    0.00620499
      58.0000    0.00607500
      58.1000    0.00594736
      58.2000    0.00582238
      58.3000    0.00569977
      58.4000    0.00557933
      58.5000    0.00546105
      58.6000    0.00534516
      58.7000    0.00523162
      58.8000    0.00512026
      58.9000    0.00501092
      59.0000    0.00490358
      59.1000    0.00479837
      59.2000    0.00469513
      59.3000    0.00459391
      59.4000    0.00449477
      59.5000    0.00439773
      59.6000    0.00430255
      59.7000    0.00420904
      59.8000    0.00411726
      59.9000    0.00402729
      60.0000    0.00393931
      60.1000    0.00385307
      60.2000    0.00376853
      60.3000    0.00368564
      60.4000    0.00360435
      60.5000    0.00352482
      60.6000    0.00344681
      60.7000    0.00337029
      60.8000    0.00329530
      60.9000    0.00322176
      61.0000    0.00314973
      61.1000    0.00307917
      61.2000    0.00301004
      61.3000    0.00294236
      61.4000    0.00287607
      61.5000    0.00281111
      61.6000    0.00274750
      61.7000    0.00268517
      61.8000    0.00262446
      61.9000    0.00256513
      62.0000    0.00250704
      62.1000    0.00245019
      62.2000    0.00239463
      62.3000    0.00234020
      62.4000    0.00228684
      62.5000    0.00223456
      62.6000    0.00218333
      62.7000    0.00213316
      62.8000    0.00208423
      62.9000    0.00203636
      63.0000    0.00198952
      63.1000    0.00194366
      63.2000    0.00189875
      63.3000    0.00185474
      63.4000    0.00181164
      63.5000    0.00176951
      63.6000    0.00172828
      63.7000    0.00168795
      63.8000    0.00164850
      63.9000    0.00160991
      64.0000    0.00157214
      64.1000    0.00153518
      64.2000    0.00149904
      64.3000    0.00146370
      64.4000    0.00142913
      64.5000    0.00139530
      64.6000    0.00136221
      64.7000    0.00132981
      64.8000    0.00129810
      64.9000    0.00126708
      65.0000    0.00123674
      65.1000    0.00120713
      65.2000    0.00117820
      65.3000    0.00114991
      65.4000    0.00112222
      65.5000    0.00109513
      65.6000    0.00106860
      65.7000    0.00104267
      65.8000    0.00101733
      65.9000   0.000992589
      66.0000   0.000968430
      66.1000   0.000944857
      66.2000   0.000921814
      66.3000   0.000899275
      66.4000   0.000877220
      66.5000   0.000855649
      66.6000   0.000834564
      66.7000   0.000813973
      66.8000   0.000793874
      66.9000   0.000774360
      67.0000   0.000755410
      67.1000   0.000736898
      67.2000   0.000718800
      67.3000   0.000701127
      67.4000   0.000683853
      67.5000   0.000666979
      67.6000   0.000650497
      67.7000   0.000634395
      67.8000   0.000618641
      67.9000   0.000603210
      68.0000   0.000588194
      68.1000   0.000573602
      68.2000   0.000559340
      68.3000   0.000545420
      68.4000   0.000531834
      68.5000   0.000518571
      68.6000   0.000505615
      68.7000   0.000492952
      68.8000   0.000480576
      68.9000   0.000468611
      69.0000   0.000457646
      69.1000   0.000448335
      69.2000   0.000440000
      69.3000   0.000431903
      69.4000   0.000424113
      69.5000   0.000416268
      69.6000   0.000408295
      69.7000   0.000400621
      69.8000   0.000393284
      69.9000   0.000386082
      70.0000   0.000378999
      70.1000   0.000371939
      70.2000   0.000365470
      70.3000   0.000359576
      70.4000   0.000353753
      70.5000   0.000348077
      70.6000   0.000342536
      70.7000   0.000337080
      70.8000   0.000331701
      70.9000   0.000326254
      71.0000   0.000320756
      71.1000   0.000315501
      71.2000   0.000310482
      71.3000   0.000305249
      71.4000   0.000299744
      71.5000   0.000294624
      71.6000   0.000290047
      71.7000   0.000285466
      71.8000   0.000280792
      71.9000   0.000276280
      72.0000   0.000272071
