Filter Al-thick
observation_date 2019-09-22 22:40:45
wavelength effective area
      1.00000   2.52796e-10
      1.10000   6.99233e-10
      1.20000   1.75057e-09
      1.30000   4.00502e-09
      1.40000   8.63390e-09
      1.50000   1.73696e-08
      1.60000   3.28992e-08
      1.70000   5.92537e-08
      1.80000   1.01464e-07
      1.90000   1.66200e-07
      2.00000   2.60867e-07
      2.10000   3.93896e-07
      2.20000   5.74581e-07
      2.30000   8.08511e-07
      2.40000   1.09913e-06
      2.50000   1.43839e-06
      2.60000   1.85775e-06
      2.70000   2.31647e-06
      2.80000   2.80070e-06
      2.90000   3.30665e-06
      3.00000   3.79679e-06
      3.10000   4.24873e-06
      3.20000   4.64080e-06
      3.30000   4.95052e-06
      3.40000   5.15661e-06
      3.50000   5.24891e-06
      3.60000   5.23881e-06
      3.70000   5.10720e-06
      3.80000   4.88365e-06
      3.90000   4.57834e-06
      4.00000   4.20556e-06
      4.10000   3.78937e-06
      4.20000   3.35253e-06
      4.30000   2.91351e-06
      4.40000   2.48806e-06
      4.50000   2.08770e-06
      4.60000   1.72015e-06
      4.70000   1.39642e-06
      4.80000   1.11511e-06
      4.90000   8.66050e-07
      5.00000   6.79825e-07
      5.10000   5.18442e-07
      5.20000   3.90743e-07
      5.30000   2.87516e-07
      5.40000   2.08169e-07
      5.50000   1.48920e-07
      5.60000   1.01625e-07
      5.70000   7.18824e-08
      5.80000   4.51427e-08
      5.90000   3.65553e-08
      6.00000   2.57156e-08
      6.10000   1.69618e-08
      6.20000   1.07877e-08
      6.30000   6.46628e-09
      6.40000   3.64938e-09
      6.50000   1.94592e-09
      6.60000   9.74018e-10
      6.70000   4.69724e-10
      6.80000   2.19455e-10
      6.90000   1.32166e-10
      7.00000   6.59694e-11
      7.10000   3.14193e-11
      7.20000   1.44916e-11
      7.30000   6.58964e-12
      7.40000   3.05092e-12
      7.50000   1.35317e-12
      7.60000   5.73000e-13
      7.70000   2.50149e-13
      7.80000   1.03143e-13
      7.90000   4.15640e-14
      8.00000     0.0717592
      8.10000     0.0718090
      8.20000     0.0665332
      8.30000     0.0612260
      8.40000     0.0562910
      8.50000     0.0516025
      8.60000     0.0471928
      8.70000     0.0430154
      8.80000     0.0391107
      8.90000     0.0354337
      9.00000     0.0320125
      9.10000     0.0288398
      9.20000     0.0258873
      9.30000     0.0231963
      9.40000     0.0207164
      9.50000     0.0184360
      9.60000     0.0163844
      9.70000     0.0145133
      9.80000     0.0128051
      9.90000     0.0112683
      10.0000    0.00988668
      10.1000    0.00864113
      10.2000    0.00752301
      10.3000    0.00653521
      10.4000    0.00566562
      10.5000    0.00489537
      10.6000    0.00421574
      10.7000    0.00361830
      10.8000    0.00309773
      10.9000    0.00264842
      11.0000    0.00225707
      11.1000    0.00191743
      11.2000    0.00162369
      11.3000    0.00137063
      11.4000    0.00115336
      11.5000   0.000967456
      11.6000   0.000808966
      11.7000   0.000675664
      11.8000   0.000562747
      11.9000   0.000468254
      12.0000   0.000388626
      12.1000   0.000323113
      12.2000   0.000272996
      12.3000   0.000226996
      12.4000   0.000186499
      12.5000   0.000152630
      12.6000   0.000124477
      12.7000   0.000101172
      12.8000   8.19654e-05
      12.9000   6.62038e-05
      13.0000   5.33086e-05
      13.1000   4.27884e-05
      13.2000   3.42332e-05
      13.3000   2.72976e-05
      13.4000   2.16940e-05
      13.5000   1.71907e-05
      13.6000   1.36407e-05
      13.7000   1.07904e-05
      13.8000   8.50781e-06
      13.9000   6.68534e-06
      14.0000   5.23435e-06
      14.1000   4.08252e-06
      14.2000   3.17117e-06
      14.3000   2.45275e-06
      14.4000   1.88873e-06
      14.5000   1.45388e-06
      14.6000   1.12228e-06
      14.7000   8.62233e-07
      14.8000   6.59062e-07
      14.9000   5.01002e-07
      15.0000   3.78637e-07
      15.1000   2.84404e-07
      15.2000   2.15614e-07
      15.3000   1.62882e-07
      15.4000   1.22175e-07
      15.5000   9.09625e-08
      15.6000   6.72030e-08
      15.7000   4.98423e-08
      15.8000   3.71953e-08
      15.9000   2.75095e-08
      16.0000   2.01633e-08
      16.1000   1.46468e-08
      16.2000   1.08078e-08
      16.3000   7.95396e-09
      16.4000   5.78414e-09
      16.5000   4.15682e-09
      16.6000   3.00762e-09
      16.7000   2.19479e-09
      16.8000   1.57706e-09
      16.9000   1.11648e-09
      17.0000   7.98523e-10
      17.1000   5.75512e-10
      17.2000   4.06936e-10
      17.3000   2.82712e-10
      17.4000   2.02871e-10
      17.5000   1.44689e-10
      17.6000   1.01453e-10
      17.7000   7.13524e-11
      17.8000   5.18176e-11
      17.9000   3.67748e-11
      18.0000   2.55100e-11
      18.1000   1.83852e-11
      18.2000   1.29168e-11
      18.3000   8.78659e-12
      18.4000   6.10956e-12
      18.5000   4.18814e-12
      18.6000   2.75185e-12
      18.7000   1.83889e-12
      18.8000   1.22629e-12
      18.9000   7.81593e-13
      19.0000   5.16598e-13
      19.1000   3.40487e-13
      19.2000   2.13765e-13
      19.3000   1.41950e-13
      19.4000   9.25917e-14
      19.5000   5.74453e-14
      19.6000   3.87725e-14
      19.7000   2.49790e-14
      19.8000   1.55001e-14
      19.9000   1.05218e-14
      20.0000   6.63840e-15
      20.1000   4.25073e-15
      20.2000   2.78795e-15
      20.3000   1.70138e-15
      20.4000   1.12489e-15
      20.5000   7.07358e-16
      20.6000   4.31140e-16
      20.7000   2.84239e-16
      20.8000   1.70399e-16
      20.9000   1.09720e-16
      21.0000   6.79565e-17
      21.1000   4.03255e-17
      21.2000   2.62700e-17
      21.3000   1.52736e-17
      21.4000   9.80228e-18
      21.5000   5.87421e-18
      21.6000   3.50892e-18
      21.7000   2.19835e-18
      21.8000   1.22026e-18
      21.9000   8.00972e-19
      22.0000   4.55716e-19
      22.1000   2.83295e-19
      22.2000   1.65962e-19
      22.3000   9.63901e-20
      22.4000   5.82746e-20
      22.5000   3.02165e-20
      22.6000   1.83277e-20
      22.7000   8.56365e-21
      22.8000   6.43797e-21
      22.9000   4.72055e-21
      23.0000   3.66499e-21
      23.1000   2.65202e-21
      23.2000   1.68796e-21
      23.3000   1.06111e-21
      23.4000   6.02820e-22
      23.5000   3.73753e-22
      23.6000   2.00714e-22
      23.7000   1.28631e-22
      23.8000   6.61359e-23
      23.9000   4.31941e-23
      24.0000   2.22482e-23
      24.1000   1.42316e-23
      24.2000   7.32709e-24
      24.3000   4.60383e-24
      24.4000   2.37414e-24
      24.5000   1.47032e-24
      24.6000   7.59598e-25
      24.7000   4.64810e-25
      24.8000   2.39840e-25
      24.9000   1.46018e-25
      25.0000   7.54049e-26
      25.1000   4.56764e-26
      25.2000   2.33623e-26
      25.3000   1.41679e-26
      25.4000   7.17050e-27
      25.5000   4.36020e-27
      25.6000   2.16367e-27
      25.7000   1.32512e-27
      25.8000   6.42258e-28
      25.9000   3.97446e-28
      26.0000   1.87111e-28
      26.1000   1.17387e-28
      26.2000   5.34655e-29
      26.3000   3.40943e-29
      26.4000   1.49649e-29
      26.5000   9.71977e-30
      26.6000   4.50184e-30
      26.7000   2.71489e-30
      26.8000   1.33955e-30
      26.9000   7.42126e-31
      27.0000   3.89143e-31
      27.1000   1.98193e-31
      27.2000   1.09998e-31
      27.3000   5.16273e-32
      27.4000   3.02968e-32
      27.5000   1.32338e-32
      27.6000   8.13215e-33
      27.7000   3.27685e-33
      27.8000   2.10202e-33
      27.9000   9.33253e-34
      28.0000   5.24609e-34
      28.1000   2.64825e-34
      28.2000   1.27437e-34
      28.3000   7.15754e-35
      28.4000   3.08735e-35
      28.5000   1.87302e-35
      28.6000   7.31376e-36
      28.7000   4.77426e-36
      28.8000   2.24813e-36
      28.9000   1.24309e-36
      29.0000   6.72843e-37
      29.1000   3.11643e-37
      29.2000   1.86392e-37
      29.3000   7.53255e-38
      29.4000   4.85594e-38
      29.5000   2.19371e-38
      29.6000   1.20010e-38
      29.7000   6.47134e-39
      29.8000   2.82888e-39
      29.9000   1.71291e-39
      30.0000   6.38181e-40
      30.1000   4.19463e-40
      30.2000   2.01912e-40
      30.3000   9.68676e-41
      30.4000   5.61164e-41
      30.5000   2.24124e-41
      30.6000   1.42750e-41
      30.7000   6.18533e-42
      30.8000   3.19496e-42
      30.9000   1.75022e-42
      31.0000   6.76827e-43
      31.1000   4.24593e-43
      31.2000   1.72360e-43
      31.3000   9.52883e-44
      31.4000   4.48416e-44
      31.5000   1.96182e-44
      31.6000   1.26117e-44
      31.7000   2.80260e-45
      31.8000   2.80260e-45
      31.9000   2.80260e-45
      32.0000       0.00000
      32.1000       0.00000
      32.2000       0.00000
      32.3000       0.00000
      32.4000       0.00000
      32.5000       0.00000
      32.6000       0.00000
      32.7000       0.00000
      32.8000       0.00000
      32.9000       0.00000
      33.0000       0.00000
      33.1000       0.00000
      33.2000       0.00000
      33.3000       0.00000
      33.4000       0.00000
      33.5000       0.00000
      33.6000       0.00000
      33.7000       0.00000
      33.8000       0.00000
      33.9000       0.00000
      34.0000       0.00000
      34.1000       0.00000
      34.2000       0.00000
      34.3000       0.00000
      34.4000       0.00000
      34.5000       0.00000
      34.6000       0.00000
      34.7000       0.00000
      34.8000       0.00000
      34.9000       0.00000
      35.0000       0.00000
      35.1000       0.00000
      35.2000       0.00000
      35.3000       0.00000
      35.4000       0.00000
      35.5000       0.00000
      35.6000       0.00000
      35.7000       0.00000
      35.8000       0.00000
      35.9000       0.00000
      36.0000       0.00000
      36.1000       0.00000
      36.2000       0.00000
      36.3000       0.00000
      36.4000       0.00000
      36.5000       0.00000
      36.6000       0.00000
      36.7000       0.00000
      36.8000       0.00000
      36.9000       0.00000
      37.0000       0.00000
      37.1000       0.00000
      37.2000       0.00000
      37.3000       0.00000
      37.4000       0.00000
      37.5000       0.00000
      37.6000       0.00000
      37.7000       0.00000
      37.8000       0.00000
      37.9000       0.00000
      38.0000       0.00000
      38.1000       0.00000
      38.2000       0.00000
      38.3000       0.00000
      38.4000       0.00000
      38.5000       0.00000
      38.6000       0.00000
      38.7000       0.00000
      38.8000       0.00000
      38.9000       0.00000
      39.0000       0.00000
      39.1000       0.00000
      39.2000       0.00000
      39.3000       0.00000
      39.4000       0.00000
      39.5000       0.00000
      39.6000       0.00000
      39.7000       0.00000
      39.8000       0.00000
      39.9000       0.00000
      40.0000       0.00000
      40.1000       0.00000
      40.2000       0.00000
      40.3000       0.00000
      40.4000       0.00000
      40.5000       0.00000
      40.6000       0.00000
      40.7000       0.00000
      40.8000       0.00000
      40.9000       0.00000
      41.0000       0.00000
      41.1000       0.00000
      41.2000       0.00000
      41.3000       0.00000
      41.4000       0.00000
      41.5000       0.00000
      41.6000       0.00000
      41.7000       0.00000
      41.8000       0.00000
      41.9000       0.00000
      42.0000       0.00000
      42.1000       0.00000
      42.2000       0.00000
      42.3000       0.00000
      42.4000       0.00000
      42.5000       0.00000
      42.6000       0.00000
      42.7000       0.00000
      42.8000       0.00000
      42.9000       0.00000
      43.0000       0.00000
      43.1000       0.00000
      43.2000       0.00000
      43.3000       0.00000
      43.4000       0.00000
      43.5000       0.00000
      43.6000       0.00000
      43.7000       0.00000
      43.8000       0.00000
      43.9000       0.00000
      44.0000       0.00000
      44.1000       0.00000
      44.2000       0.00000
      44.3000       0.00000
      44.4000       0.00000
      44.5000       0.00000
      44.6000       0.00000
      44.7000       0.00000
      44.8000       0.00000
      44.9000       0.00000
      45.0000       0.00000
      45.1000       0.00000
      45.2000       0.00000
      45.3000       0.00000
      45.4000       0.00000
      45.5000       0.00000
      45.6000       0.00000
      45.7000       0.00000
      45.8000       0.00000
      45.9000       0.00000
      46.0000       0.00000
      46.1000       0.00000
      46.2000       0.00000
      46.3000       0.00000
      46.4000       0.00000
      46.5000       0.00000
      46.6000       0.00000
      46.7000       0.00000
      46.8000       0.00000
      46.9000       0.00000
      47.0000       0.00000
      47.1000       0.00000
      47.2000       0.00000
      47.3000       0.00000
      47.4000       0.00000
      47.5000       0.00000
      47.6000       0.00000
      47.7000       0.00000
      47.8000       0.00000
      47.9000       0.00000
      48.0000       0.00000
      48.1000       0.00000
      48.2000       0.00000
      48.3000       0.00000
      48.4000       0.00000
      48.5000       0.00000
      48.6000       0.00000
      48.7000       0.00000
      48.8000       0.00000
      48.9000       0.00000
      49.0000       0.00000
      49.1000       0.00000
      49.2000       0.00000
      49.3000       0.00000
      49.4000       0.00000
      49.5000       0.00000
      49.6000       0.00000
      49.7000       0.00000
      49.8000       0.00000
      49.9000       0.00000
      50.0000       0.00000
      50.1000       0.00000
      50.2000       0.00000
      50.3000       0.00000
      50.4000       0.00000
      50.5000       0.00000
      50.6000       0.00000
      50.7000       0.00000
      50.8000       0.00000
      50.9000       0.00000
      51.0000       0.00000
      51.1000       0.00000
      51.2000       0.00000
      51.3000       0.00000
      51.4000       0.00000
      51.5000       0.00000
      51.6000       0.00000
      51.7000       0.00000
      51.8000       0.00000
      51.9000       0.00000
      52.0000       0.00000
      52.1000       0.00000
      52.2000       0.00000
      52.3000       0.00000
      52.4000       0.00000
      52.5000       0.00000
      52.6000       0.00000
      52.7000       0.00000
      52.8000       0.00000
      52.9000       0.00000
      53.0000       0.00000
      53.1000       0.00000
      53.2000       0.00000
      53.3000       0.00000
      53.4000       0.00000
      53.5000       0.00000
      53.6000       0.00000
      53.7000       0.00000
      53.8000       0.00000
      53.9000       0.00000
      54.0000       0.00000
      54.1000       0.00000
      54.2000       0.00000
      54.3000       0.00000
      54.4000       0.00000
      54.5000       0.00000
      54.6000       0.00000
      54.7000       0.00000
      54.8000       0.00000
      54.9000       0.00000
      55.0000       0.00000
      55.1000       0.00000
      55.2000       0.00000
      55.3000       0.00000
      55.4000       0.00000
      55.5000       0.00000
      55.6000       0.00000
      55.7000       0.00000
      55.8000       0.00000
      55.9000       0.00000
      56.0000       0.00000
      56.1000       0.00000
      56.2000       0.00000
      56.3000       0.00000
      56.4000       0.00000
      56.5000       0.00000
      56.6000       0.00000
      56.7000       0.00000
      56.8000       0.00000
      56.9000       0.00000
      57.0000       0.00000
      57.1000       0.00000
      57.2000       0.00000
      57.3000       0.00000
      57.4000       0.00000
      57.5000       0.00000
      57.6000       0.00000
      57.7000       0.00000
      57.8000       0.00000
      57.9000       0.00000
      58.0000       0.00000
      58.1000       0.00000
      58.2000       0.00000
      58.3000       0.00000
      58.4000       0.00000
      58.5000       0.00000
      58.6000       0.00000
      58.7000       0.00000
      58.8000       0.00000
      58.9000       0.00000
      59.0000       0.00000
      59.1000       0.00000
      59.2000       0.00000
      59.3000       0.00000
      59.4000       0.00000
      59.5000       0.00000
      59.6000       0.00000
      59.7000       0.00000
      59.8000       0.00000
      59.9000       0.00000
      60.0000       0.00000
      60.1000       0.00000
      60.2000       0.00000
      60.3000       0.00000
      60.4000       0.00000
      60.5000       0.00000
      60.6000       0.00000
      60.7000       0.00000
      60.8000       0.00000
      60.9000       0.00000
      61.0000       0.00000
      61.1000       0.00000
      61.2000       0.00000
      61.3000       0.00000
      61.4000       0.00000
      61.5000       0.00000
      61.6000       0.00000
      61.7000       0.00000
      61.8000       0.00000
      61.9000       0.00000
      62.0000       0.00000
      62.1000       0.00000
      62.2000       0.00000
      62.3000       0.00000
      62.4000       0.00000
      62.5000       0.00000
      62.6000       0.00000
      62.7000       0.00000
      62.8000       0.00000
      62.9000       0.00000
      63.0000       0.00000
      63.1000       0.00000
      63.2000       0.00000
      63.3000       0.00000
      63.4000       0.00000
      63.5000       0.00000
      63.6000       0.00000
      63.7000       0.00000
      63.8000       0.00000
      63.9000       0.00000
      64.0000       0.00000
      64.1000       0.00000
      64.2000       0.00000
      64.3000       0.00000
      64.4000       0.00000
      64.5000       0.00000
      64.6000       0.00000
      64.7000       0.00000
      64.8000       0.00000
      64.9000       0.00000
      65.0000       0.00000
      65.1000       0.00000
      65.2000       0.00000
      65.3000       0.00000
      65.4000       0.00000
      65.5000       0.00000
      65.6000       0.00000
      65.7000       0.00000
      65.8000       0.00000
      65.9000       0.00000
      66.0000       0.00000
      66.1000       0.00000
      66.2000       0.00000
      66.3000       0.00000
      66.4000       0.00000
      66.5000       0.00000
      66.6000       0.00000
      66.7000       0.00000
      66.8000       0.00000
      66.9000       0.00000
      67.0000       0.00000
      67.1000       0.00000
      67.2000       0.00000
      67.3000       0.00000
      67.4000       0.00000
      67.5000       0.00000
      67.6000       0.00000
      67.7000       0.00000
      67.8000       0.00000
      67.9000       0.00000
      68.0000       0.00000
      68.1000       0.00000
      68.2000       0.00000
      68.3000       0.00000
      68.4000       0.00000
      68.5000       0.00000
      68.6000       0.00000
      68.7000       0.00000
      68.8000       0.00000
      68.9000       0.00000
      69.0000       0.00000
      69.1000       0.00000
      69.2000       0.00000
      69.3000       0.00000
      69.4000       0.00000
      69.5000       0.00000
      69.6000       0.00000
      69.7000       0.00000
      69.8000       0.00000
      69.9000       0.00000
      70.0000       0.00000
      70.1000       0.00000
      70.2000       0.00000
      70.3000       0.00000
      70.4000       0.00000
      70.5000       0.00000
      70.6000       0.00000
      70.7000       0.00000
      70.8000       0.00000
      70.9000       0.00000
      71.0000       0.00000
      71.1000       0.00000
      71.2000       0.00000
      71.3000       0.00000
      71.4000       0.00000
      71.5000       0.00000
      71.6000       0.00000
      71.7000       0.00000
      71.8000       0.00000
      71.9000       0.00000
      72.0000       0.00000
