Filter Al-thick
observation_date 2013-09-22 22:40:45
wavelength effective area
      1.00000   2.52797e-10
      1.10000   6.99235e-10
      1.20000   1.75057e-09
      1.30000   4.00503e-09
      1.40000   8.63393e-09
      1.50000   1.73697e-08
      1.60000   3.28994e-08
      1.70000   5.92542e-08
      1.80000   1.01465e-07
      1.90000   1.66201e-07
      2.00000   2.60870e-07
      2.10000   3.93902e-07
      2.20000   5.74591e-07
      2.30000   8.08527e-07
      2.40000   1.09916e-06
      2.50000   1.43843e-06
      2.60000   1.85780e-06
      2.70000   2.31655e-06
      2.80000   2.80081e-06
      2.90000   3.30679e-06
      3.00000   3.79696e-06
      3.10000   4.24894e-06
      3.20000   4.64105e-06
      3.30000   4.95081e-06
      3.40000   5.15695e-06
      3.50000   5.24928e-06
      3.60000   5.23922e-06
      3.70000   5.10764e-06
      3.80000   4.88409e-06
      3.90000   4.57879e-06
      4.00000   4.20601e-06
      4.10000   3.78980e-06
      4.20000   3.35294e-06
      4.30000   2.91390e-06
      4.40000   2.48841e-06
      4.50000   2.08802e-06
      4.60000   1.72043e-06
      4.70000   1.39666e-06
      4.80000   1.11531e-06
      4.90000   8.66219e-07
      5.00000   6.79965e-07
      5.10000   5.18555e-07
      5.20000   3.90834e-07
      5.30000   2.87586e-07
      5.40000   2.08223e-07
      5.50000   1.48961e-07
      5.60000   1.01654e-07
      5.70000   7.19042e-08
      5.80000   4.51571e-08
      5.90000   3.65676e-08
      6.00000   2.57247e-08
      6.10000   1.69681e-08
      6.20000   1.07919e-08
      6.30000   6.46890e-09
      6.40000   3.65093e-09
      6.50000   1.94679e-09
      6.60000   9.74469e-10
      6.70000   4.69951e-10
      6.80000   2.19566e-10
      6.90000   1.32235e-10
      7.00000   6.60056e-11
      7.10000   3.14373e-11
      7.20000   1.45002e-11
      7.30000   6.59372e-12
      7.40000   3.05289e-12
      7.50000   1.35407e-12
      7.60000   5.73399e-13
      7.70000   2.50330e-13
      7.80000   1.03220e-13
      7.90000   4.15963e-14
      8.00000     0.0718170
      8.10000     0.0718689
      8.20000     0.0665906
      8.30000     0.0612807
      8.40000     0.0563430
      8.50000     0.0516519
      8.60000     0.0472395
      8.70000     0.0430593
      8.80000     0.0391520
      8.90000     0.0354722
      9.00000     0.0320485
      9.10000     0.0288732
      9.20000     0.0259183
      9.30000     0.0232249
      9.40000     0.0207428
      9.50000     0.0184601
      9.60000     0.0164064
      9.70000     0.0145334
      9.80000     0.0128234
      9.90000     0.0112848
      10.0000    0.00990163
      10.1000    0.00865456
      10.2000    0.00753503
      10.3000    0.00654594
      10.4000    0.00567517
      10.5000    0.00490384
      10.6000    0.00422324
      10.7000    0.00362491
      10.8000    0.00310353
      10.9000    0.00265351
      11.0000    0.00226151
      11.1000    0.00192130
      11.2000    0.00162706
      11.3000    0.00137354
      11.4000    0.00115587
      11.5000   0.000969612
      11.6000   0.000810813
      11.7000   0.000677244
      11.8000   0.000564094
      11.9000   0.000469402
      12.0000   0.000389600
      12.1000   0.000323941
      12.2000   0.000273712
      12.3000   0.000227604
      12.4000   0.000187010
      12.5000   0.000153058
      12.6000   0.000124834
      12.7000   0.000101468
      12.8000   8.22105e-05
      12.9000   6.64061e-05
      13.0000   5.34750e-05
      13.1000   4.29248e-05
      13.2000   3.43446e-05
      13.3000   2.73883e-05
      13.4000   2.17676e-05
      13.5000   1.72501e-05
      13.6000   1.36888e-05
      13.7000   1.08292e-05
      13.8000   8.53901e-06
      13.9000   6.71033e-06
      14.0000   5.25430e-06
      14.1000   4.09838e-06
      14.2000   3.18372e-06
      14.3000   2.46265e-06
      14.4000   1.89649e-06
      14.5000   1.45996e-06
      14.6000   1.12707e-06
      14.7000   8.65978e-07
      14.8000   6.61977e-07
      14.9000   5.03259e-07
      15.0000   3.80374e-07
      15.1000   2.85732e-07
      15.2000   2.16639e-07
      15.3000   1.63670e-07
      15.4000   1.22777e-07
      15.5000   9.14184e-08
      15.6000   6.75457e-08
      15.7000   5.01009e-08
      15.8000   3.73916e-08
      15.9000   2.76572e-08
      16.0000   2.02734e-08
      16.1000   1.47281e-08
      16.2000   1.08688e-08
      16.3000   7.99961e-09
      16.4000   5.81788e-09
      16.5000   4.18146e-09
      16.6000   3.02574e-09
      16.7000   2.20823e-09
      16.8000   1.58687e-09
      16.9000   1.12354e-09
      17.0000   8.03649e-10
      17.1000   5.79265e-10
      17.2000   4.09631e-10
      17.3000   2.84613e-10
      17.4000   2.04256e-10
      17.5000   1.45692e-10
      17.6000   1.02166e-10
      17.7000   7.18611e-11
      17.8000   5.21920e-11
      17.9000   3.70441e-11
      18.0000   2.56993e-11
      18.1000   1.85234e-11
      18.2000   1.30152e-11
      18.3000   8.85443e-12
      18.4000   6.15736e-12
      18.5000   4.22136e-12
      18.6000   2.77397e-12
      18.7000   1.85388e-12
      18.8000   1.23642e-12
      18.9000   7.88140e-13
      19.0000   5.20984e-13
      19.1000   3.43417e-13
      19.2000   2.15629e-13
      19.3000   1.43204e-13
      19.4000   9.34209e-14
      19.5000   5.79665e-14
      19.6000   3.91288e-14
      19.7000   2.52116e-14
      19.8000   1.56463e-14
      19.9000   1.06223e-14
      20.0000   6.70259e-15
      20.1000   4.29234e-15
      20.2000   2.81558e-15
      20.3000   1.71845e-15
      20.4000   1.13632e-15
      20.5000   7.14633e-16
      20.6000   4.35628e-16
      20.7000   2.87234e-16
      20.8000   1.72217e-16
      20.9000   1.10905e-16
      21.0000   6.86989e-17
      21.1000   4.07713e-17
      21.2000   2.65639e-17
      21.3000   1.54465e-17
      21.4000   9.91455e-18
      21.5000   5.94228e-18
      21.6000   3.55006e-18
      21.7000   2.22442e-18
      21.8000   1.23490e-18
      21.9000   8.10694e-19
      22.0000   4.61311e-19
      22.1000   2.86813e-19
      22.2000   1.68047e-19
      22.3000   9.76148e-20
      22.4000   5.90234e-20
      22.5000   3.06091e-20
      22.6000   1.85686e-20
      22.7000   8.66984e-21
      22.8000   6.50718e-21
      22.9000   4.76822e-21
      23.0000   3.70111e-21
      23.1000   2.67837e-21
      23.2000   1.70491e-21
      23.3000   1.07188e-21
      23.4000   6.09007e-22
      23.5000   3.77631e-22
      23.6000   2.02819e-22
      23.7000   1.29994e-22
      23.8000   6.68446e-23
      23.9000   4.36619e-23
      24.0000   2.24917e-23
      24.1000   1.43890e-23
      24.2000   7.40900e-24
      24.3000   4.65583e-24
      24.4000   2.40124e-24
      24.5000   1.48728e-24
      24.6000   7.68451e-25
      24.7000   4.70283e-25
      24.8000   2.42693e-25
      24.9000   1.47773e-25
      25.0000   7.63206e-26
      25.1000   4.62367e-26
      25.2000   2.36518e-26
      25.3000   1.43452e-26
      25.4000   7.26116e-27
      25.5000   4.41589e-27
      25.6000   2.19158e-27
      25.7000   1.34238e-27
      25.8000   6.50704e-28
      25.9000   4.02723e-28
      26.0000   1.89620e-28
      26.1000   1.18976e-28
      26.2000   5.41961e-29
      26.3000   3.45646e-29
      26.4000   1.51733e-29
      26.5000   9.85643e-30
      26.6000   4.56573e-30
      26.7000   2.75378e-30
      26.8000   1.35892e-30
      26.9000   7.52957e-31
      27.0000   3.94876e-31
      27.1000   2.01140e-31
      27.2000   1.11648e-31
      27.3000   5.24091e-32
      27.4000   3.07598e-32
      27.5000   1.34379e-32
      27.6000   8.25871e-33
      27.7000   3.32831e-33
      27.8000   2.13533e-33
      27.9000   9.48175e-34
      28.0000   5.33073e-34
      28.1000   2.69135e-34
      28.2000   1.29530e-34
      28.3000   7.27612e-35
      28.4000   3.13895e-35
      28.5000   1.90460e-35
      28.6000   7.43818e-36
      28.7000   4.85619e-36
      28.8000   2.28705e-36
      28.9000   1.26479e-36
      29.0000   6.84693e-37
      29.1000   3.17180e-37
      29.2000   1.89732e-37
      29.3000   7.66867e-38
      29.4000   4.94445e-38
      29.5000   2.23403e-38
      29.6000   1.22235e-38
      29.7000   6.59233e-39
      29.8000   2.88222e-39
      29.9000   1.74548e-39
      30.0000   6.50414e-40
      30.1000   4.27573e-40
      30.2000   2.05848e-40
      30.3000   9.87719e-41
      30.4000   5.72276e-41
      30.5000   2.28594e-41
      30.6000   1.45623e-41
      30.7000   6.31005e-42
      30.8000   3.25942e-42
      30.9000   1.78666e-42
      31.0000   6.89439e-43
      31.1000   4.34403e-43
      31.2000   1.75162e-43
      31.3000   9.52883e-44
      31.4000   4.76441e-44
      31.5000   1.96182e-44
      31.6000   1.26117e-44
      31.7000   2.80260e-45
      31.8000   2.80260e-45
      31.9000   2.80260e-45
      32.0000       0.00000
      32.1000       0.00000
      32.2000       0.00000
      32.3000       0.00000
      32.4000       0.00000
      32.5000       0.00000
      32.6000       0.00000
      32.7000       0.00000
      32.8000       0.00000
      32.9000       0.00000
      33.0000       0.00000
      33.1000       0.00000
      33.2000       0.00000
      33.3000       0.00000
      33.4000       0.00000
      33.5000       0.00000
      33.6000       0.00000
      33.7000       0.00000
      33.8000       0.00000
      33.9000       0.00000
      34.0000       0.00000
      34.1000       0.00000
      34.2000       0.00000
      34.3000       0.00000
      34.4000       0.00000
      34.5000       0.00000
      34.6000       0.00000
      34.7000       0.00000
      34.8000       0.00000
      34.9000       0.00000
      35.0000       0.00000
      35.1000       0.00000
      35.2000       0.00000
      35.3000       0.00000
      35.4000       0.00000
      35.5000       0.00000
      35.6000       0.00000
      35.7000       0.00000
      35.8000       0.00000
      35.9000       0.00000
      36.0000       0.00000
      36.1000       0.00000
      36.2000       0.00000
      36.3000       0.00000
      36.4000       0.00000
      36.5000       0.00000
      36.6000       0.00000
      36.7000       0.00000
      36.8000       0.00000
      36.9000       0.00000
      37.0000       0.00000
      37.1000       0.00000
      37.2000       0.00000
      37.3000       0.00000
      37.4000       0.00000
      37.5000       0.00000
      37.6000       0.00000
      37.7000       0.00000
      37.8000       0.00000
      37.9000       0.00000
      38.0000       0.00000
      38.1000       0.00000
      38.2000       0.00000
      38.3000       0.00000
      38.4000       0.00000
      38.5000       0.00000
      38.6000       0.00000
      38.7000       0.00000
      38.8000       0.00000
      38.9000       0.00000
      39.0000       0.00000
      39.1000       0.00000
      39.2000       0.00000
      39.3000       0.00000
      39.4000       0.00000
      39.5000       0.00000
      39.6000       0.00000
      39.7000       0.00000
      39.8000       0.00000
      39.9000       0.00000
      40.0000       0.00000
      40.1000       0.00000
      40.2000       0.00000
      40.3000       0.00000
      40.4000       0.00000
      40.5000       0.00000
      40.6000       0.00000
      40.7000       0.00000
      40.8000       0.00000
      40.9000       0.00000
      41.0000       0.00000
      41.1000       0.00000
      41.2000       0.00000
      41.3000       0.00000
      41.4000       0.00000
      41.5000       0.00000
      41.6000       0.00000
      41.7000       0.00000
      41.8000       0.00000
      41.9000       0.00000
      42.0000       0.00000
      42.1000       0.00000
      42.2000       0.00000
      42.3000       0.00000
      42.4000       0.00000
      42.5000       0.00000
      42.6000       0.00000
      42.7000       0.00000
      42.8000       0.00000
      42.9000       0.00000
      43.0000       0.00000
      43.1000       0.00000
      43.2000       0.00000
      43.3000       0.00000
      43.4000       0.00000
      43.5000       0.00000
      43.6000       0.00000
      43.7000       0.00000
      43.8000       0.00000
      43.9000       0.00000
      44.0000       0.00000
      44.1000       0.00000
      44.2000       0.00000
      44.3000       0.00000
      44.4000       0.00000
      44.5000       0.00000
      44.6000       0.00000
      44.7000       0.00000
      44.8000       0.00000
      44.9000       0.00000
      45.0000       0.00000
      45.1000       0.00000
      45.2000       0.00000
      45.3000       0.00000
      45.4000       0.00000
      45.5000       0.00000
      45.6000       0.00000
      45.7000       0.00000
      45.8000       0.00000
      45.9000       0.00000
      46.0000       0.00000
      46.1000       0.00000
      46.2000       0.00000
      46.3000       0.00000
      46.4000       0.00000
      46.5000       0.00000
      46.6000       0.00000
      46.7000       0.00000
      46.8000       0.00000
      46.9000       0.00000
      47.0000       0.00000
      47.1000       0.00000
      47.2000       0.00000
      47.3000       0.00000
      47.4000       0.00000
      47.5000       0.00000
      47.6000       0.00000
      47.7000       0.00000
      47.8000       0.00000
      47.9000       0.00000
      48.0000       0.00000
      48.1000       0.00000
      48.2000       0.00000
      48.3000       0.00000
      48.4000       0.00000
      48.5000       0.00000
      48.6000       0.00000
      48.7000       0.00000
      48.8000       0.00000
      48.9000       0.00000
      49.0000       0.00000
      49.1000       0.00000
      49.2000       0.00000
      49.3000       0.00000
      49.4000       0.00000
      49.5000       0.00000
      49.6000       0.00000
      49.7000       0.00000
      49.8000       0.00000
      49.9000       0.00000
      50.0000       0.00000
      50.1000       0.00000
      50.2000       0.00000
      50.3000       0.00000
      50.4000       0.00000
      50.5000       0.00000
      50.6000       0.00000
      50.7000       0.00000
      50.8000       0.00000
      50.9000       0.00000
      51.0000       0.00000
      51.1000       0.00000
      51.2000       0.00000
      51.3000       0.00000
      51.4000       0.00000
      51.5000       0.00000
      51.6000       0.00000
      51.7000       0.00000
      51.8000       0.00000
      51.9000       0.00000
      52.0000       0.00000
      52.1000       0.00000
      52.2000       0.00000
      52.3000       0.00000
      52.4000       0.00000
      52.5000       0.00000
      52.6000       0.00000
      52.7000       0.00000
      52.8000       0.00000
      52.9000       0.00000
      53.0000       0.00000
      53.1000       0.00000
      53.2000       0.00000
      53.3000       0.00000
      53.4000       0.00000
      53.5000       0.00000
      53.6000       0.00000
      53.7000       0.00000
      53.8000       0.00000
      53.9000       0.00000
      54.0000       0.00000
      54.1000       0.00000
      54.2000       0.00000
      54.3000       0.00000
      54.4000       0.00000
      54.5000       0.00000
      54.6000       0.00000
      54.7000       0.00000
      54.8000       0.00000
      54.9000       0.00000
      55.0000       0.00000
      55.1000       0.00000
      55.2000       0.00000
      55.3000       0.00000
      55.4000       0.00000
      55.5000       0.00000
      55.6000       0.00000
      55.7000       0.00000
      55.8000       0.00000
      55.9000       0.00000
      56.0000       0.00000
      56.1000       0.00000
      56.2000       0.00000
      56.3000       0.00000
      56.4000       0.00000
      56.5000       0.00000
      56.6000       0.00000
      56.7000       0.00000
      56.8000       0.00000
      56.9000       0.00000
      57.0000       0.00000
      57.1000       0.00000
      57.2000       0.00000
      57.3000       0.00000
      57.4000       0.00000
      57.5000       0.00000
      57.6000       0.00000
      57.7000       0.00000
      57.8000       0.00000
      57.9000       0.00000
      58.0000       0.00000
      58.1000       0.00000
      58.2000       0.00000
      58.3000       0.00000
      58.4000       0.00000
      58.5000       0.00000
      58.6000       0.00000
      58.7000       0.00000
      58.8000       0.00000
      58.9000       0.00000
      59.0000       0.00000
      59.1000       0.00000
      59.2000       0.00000
      59.3000       0.00000
      59.4000       0.00000
      59.5000       0.00000
      59.6000       0.00000
      59.7000       0.00000
      59.8000       0.00000
      59.9000       0.00000
      60.0000       0.00000
      60.1000       0.00000
      60.2000       0.00000
      60.3000       0.00000
      60.4000       0.00000
      60.5000       0.00000
      60.6000       0.00000
      60.7000       0.00000
      60.8000       0.00000
      60.9000       0.00000
      61.0000       0.00000
      61.1000       0.00000
      61.2000       0.00000
      61.3000       0.00000
      61.4000       0.00000
      61.5000       0.00000
      61.6000       0.00000
      61.7000       0.00000
      61.8000       0.00000
      61.9000       0.00000
      62.0000       0.00000
      62.1000       0.00000
      62.2000       0.00000
      62.3000       0.00000
      62.4000       0.00000
      62.5000       0.00000
      62.6000       0.00000
      62.7000       0.00000
      62.8000       0.00000
      62.9000       0.00000
      63.0000       0.00000
      63.1000       0.00000
      63.2000       0.00000
      63.3000       0.00000
      63.4000       0.00000
      63.5000       0.00000
      63.6000       0.00000
      63.7000       0.00000
      63.8000       0.00000
      63.9000       0.00000
      64.0000       0.00000
      64.1000       0.00000
      64.2000       0.00000
      64.3000       0.00000
      64.4000       0.00000
      64.5000       0.00000
      64.6000       0.00000
      64.7000       0.00000
      64.8000       0.00000
      64.9000       0.00000
      65.0000       0.00000
      65.1000       0.00000
      65.2000       0.00000
      65.3000       0.00000
      65.4000       0.00000
      65.5000       0.00000
      65.6000       0.00000
      65.7000       0.00000
      65.8000       0.00000
      65.9000       0.00000
      66.0000       0.00000
      66.1000       0.00000
      66.2000       0.00000
      66.3000       0.00000
      66.4000       0.00000
      66.5000       0.00000
      66.6000       0.00000
      66.7000       0.00000
      66.8000       0.00000
      66.9000       0.00000
      67.0000       0.00000
      67.1000       0.00000
      67.2000       0.00000
      67.3000       0.00000
      67.4000       0.00000
      67.5000       0.00000
      67.6000       0.00000
      67.7000       0.00000
      67.8000       0.00000
      67.9000       0.00000
      68.0000       0.00000
      68.1000       0.00000
      68.2000       0.00000
      68.3000       0.00000
      68.4000       0.00000
      68.5000       0.00000
      68.6000       0.00000
      68.7000       0.00000
      68.8000       0.00000
      68.9000       0.00000
      69.0000       0.00000
      69.1000       0.00000
      69.2000       0.00000
      69.3000       0.00000
      69.4000       0.00000
      69.5000       0.00000
      69.6000       0.00000
      69.7000       0.00000
      69.8000       0.00000
      69.9000       0.00000
      70.0000       0.00000
      70.1000       0.00000
      70.2000       0.00000
      70.3000       0.00000
      70.4000       0.00000
      70.5000       0.00000
      70.6000       0.00000
      70.7000       0.00000
      70.8000       0.00000
      70.9000       0.00000
      71.0000       0.00000
      71.1000       0.00000
      71.2000       0.00000
      71.3000       0.00000
      71.4000       0.00000
      71.5000       0.00000
      71.6000       0.00000
      71.7000       0.00000
      71.8000       0.00000
      71.9000       0.00000
      72.0000       0.00000
