Filter Al-thick
observation_date 2021-09-22 22:45:45
wavelength effective area
      1.00000   2.52796e-10
      1.10000   6.99231e-10
      1.20000   1.75056e-09
      1.30000   4.00500e-09
      1.40000   8.63385e-09
      1.50000   1.73695e-08
      1.60000   3.28989e-08
      1.70000   5.92532e-08
      1.80000   1.01463e-07
      1.90000   1.66197e-07
      2.00000   2.60863e-07
      2.10000   3.93888e-07
      2.20000   5.74568e-07
      2.30000   8.08491e-07
      2.40000   1.09910e-06
      2.50000   1.43835e-06
      2.60000   1.85768e-06
      2.70000   2.31638e-06
      2.80000   2.80058e-06
      2.90000   3.30649e-06
      3.00000   3.79657e-06
      3.10000   4.24847e-06
      3.20000   4.64048e-06
      3.30000   4.95015e-06
      3.40000   5.15619e-06
      3.50000   5.24844e-06
      3.60000   5.23830e-06
      3.70000   5.10667e-06
      3.80000   4.88309e-06
      3.90000   4.57778e-06
      4.00000   4.20501e-06
      4.10000   3.78882e-06
      4.20000   3.35201e-06
      4.30000   2.91303e-06
      4.40000   2.48762e-06
      4.50000   2.08731e-06
      4.60000   1.71981e-06
      4.70000   1.39612e-06
      4.80000   1.11485e-06
      4.90000   8.65841e-07
      5.00000   6.79650e-07
      5.10000   5.18301e-07
      5.20000   3.90631e-07
      5.30000   2.87429e-07
      5.40000   2.08102e-07
      5.50000   1.48870e-07
      5.60000   1.01589e-07
      5.70000   7.18554e-08
      5.80000   4.51249e-08
      5.90000   3.65401e-08
      6.00000   2.57044e-08
      6.10000   1.69541e-08
      6.20000   1.07826e-08
      6.30000   6.46303e-09
      6.40000   3.64746e-09
      6.50000   1.94485e-09
      6.60000   9.73458e-10
      6.70000   4.69442e-10
      6.80000   2.19317e-10
      6.90000   1.32079e-10
      7.00000   6.59245e-11
      7.10000   3.13970e-11
      7.20000   1.44809e-11
      7.30000   6.58458e-12
      7.40000   3.04849e-12
      7.50000   1.35204e-12
      7.60000   5.72506e-13
      7.70000   2.49925e-13
      7.80000   1.03047e-13
      7.90000   4.15240e-14
      8.00000     0.0716876
      8.10000     0.0717347
      8.20000     0.0664619
      8.30000     0.0611581
      8.40000     0.0562264
      8.50000     0.0515413
      8.60000     0.0471350
      8.70000     0.0429609
      8.80000     0.0390596
      8.90000     0.0353858
      9.00000     0.0319679
      9.10000     0.0287983
      9.20000     0.0258490
      9.30000     0.0231609
      9.40000     0.0206838
      9.50000     0.0184061
      9.60000     0.0163570
      9.70000     0.0144883
      9.80000     0.0127824
      9.90000     0.0112477
      10.0000    0.00986815
      10.1000    0.00862448
      10.2000    0.00750812
      10.3000    0.00652191
      10.4000    0.00565378
      10.5000    0.00488486
      10.6000    0.00420646
      10.7000    0.00361012
      10.8000    0.00309055
      10.9000    0.00264212
      11.0000    0.00225156
      11.1000    0.00191263
      11.2000    0.00161953
      11.3000    0.00136703
      11.4000    0.00115025
      11.5000   0.000964785
      11.6000   0.000806679
      11.7000   0.000673708
      11.8000   0.000561079
      11.9000   0.000466834
      12.0000   0.000387419
      12.1000   0.000322087
      12.2000   0.000272109
      12.3000   0.000226242
      12.4000   0.000185866
      12.5000   0.000152101
      12.6000   0.000124036
      12.7000   0.000100805
      12.8000   8.16620e-05
      12.9000   6.59536e-05
      13.0000   5.31028e-05
      13.1000   4.26197e-05
      13.2000   3.40955e-05
      13.3000   2.71855e-05
      13.4000   2.16031e-05
      13.5000   1.71172e-05
      13.6000   1.35812e-05
      13.7000   1.07424e-05
      13.8000   8.46924e-06
      13.9000   6.65444e-06
      14.0000   5.20969e-06
      14.1000   4.06293e-06
      14.2000   3.15566e-06
      14.3000   2.44053e-06
      14.4000   1.87914e-06
      14.5000   1.44636e-06
      14.6000   1.11637e-06
      14.7000   8.57607e-07
      14.8000   6.55461e-07
      14.9000   4.98215e-07
      15.0000   3.76492e-07
      15.1000   2.82764e-07
      15.2000   2.14348e-07
      15.3000   1.61909e-07
      15.4000   1.21432e-07
      15.5000   9.03997e-08
      15.6000   6.67800e-08
      15.7000   4.95232e-08
      15.8000   3.69530e-08
      15.9000   2.73273e-08
      16.0000   2.00275e-08
      16.1000   1.45465e-08
      16.2000   1.07325e-08
      16.3000   7.89767e-09
      16.4000   5.74253e-09
      16.5000   4.12643e-09
      16.6000   2.98528e-09
      16.7000   2.17823e-09
      16.8000   1.56497e-09
      16.9000   1.10778e-09
      17.0000   7.92205e-10
      17.1000   5.70887e-10
      17.2000   4.03615e-10
      17.3000   2.80369e-10
      17.4000   2.01164e-10
      17.5000   1.43454e-10
      17.6000   1.00574e-10
      17.7000   7.07260e-11
      17.8000   5.13566e-11
      17.9000   3.64433e-11
      18.0000   2.52770e-11
      18.1000   1.82151e-11
      18.2000   1.27957e-11
      18.3000   8.70311e-12
      18.4000   6.05073e-12
      18.5000   4.14727e-12
      18.6000   2.72463e-12
      18.7000   1.82045e-12
      18.8000   1.21382e-12
      18.9000   7.73541e-13
      19.0000   5.11203e-13
      19.1000   3.36884e-13
      19.2000   2.11473e-13
      19.3000   1.40407e-13
      19.4000   9.15726e-14
      19.5000   5.68048e-14
      19.6000   3.83346e-14
      19.7000   2.46933e-14
      19.8000   1.53206e-14
      19.9000   1.03984e-14
      20.0000   6.55958e-15
      20.1000   4.19963e-15
      20.2000   2.75402e-15
      20.3000   1.68042e-15
      20.4000   1.11086e-15
      20.5000   6.98429e-16
      20.6000   4.25632e-16
      20.7000   2.80564e-16
      20.8000   1.68170e-16
      20.9000   1.08268e-16
      21.0000   6.70460e-17
      21.1000   3.97789e-17
      21.2000   2.59097e-17
      21.3000   1.50617e-17
      21.4000   9.66468e-18
      21.5000   5.79079e-18
      21.6000   3.45852e-18
      21.7000   2.16640e-18
      21.8000   1.20233e-18
      21.9000   7.89065e-19
      22.0000   4.48864e-19
      22.1000   2.78987e-19
      22.2000   1.63410e-19
      22.3000   9.48912e-20
      22.4000   5.73582e-20
      22.5000   2.97360e-20
      22.6000   1.80331e-20
      22.7000   8.43366e-21
      22.8000   6.35309e-21
      22.9000   4.66204e-21
      23.0000   3.62064e-21
      23.1000   2.61969e-21
      23.2000   1.66716e-21
      23.3000   1.04788e-21
      23.4000   5.95227e-22
      23.5000   3.68995e-22
      23.6000   1.98131e-22
      23.7000   1.26958e-22
      23.8000   6.52666e-23
      23.9000   4.26203e-23
      24.0000   2.19495e-23
      24.1000   1.40385e-23
      24.2000   7.22667e-24
      24.3000   4.54007e-24
      24.4000   2.34092e-24
      24.5000   1.44954e-24
      24.6000   7.48749e-25
      24.7000   4.58104e-25
      24.8000   2.36344e-25
      24.9000   1.43868e-25
      25.0000   7.42835e-26
      25.1000   4.49903e-26
      25.2000   2.30078e-26
      25.3000   1.39508e-26
      25.4000   7.05953e-27
      25.5000   4.29206e-27
      25.6000   2.12953e-27
      25.7000   1.30401e-27
      25.8000   6.31926e-28
      25.9000   3.90991e-28
      26.0000   1.84043e-28
      26.1000   1.15444e-28
      26.2000   5.25722e-29
      26.3000   3.35193e-29
      26.4000   1.47102e-29
      26.5000   9.55277e-30
      26.6000   4.42377e-30
      26.7000   2.66737e-30
      26.8000   1.31589e-30
      26.9000   7.28896e-31
      27.0000   3.82143e-31
      27.1000   1.94595e-31
      27.2000   1.07983e-31
      27.3000   5.06730e-32
      27.4000   2.97317e-32
      27.5000   1.29848e-32
      27.6000   7.97773e-33
      27.7000   3.21408e-33
      27.8000   2.06140e-33
      27.9000   9.15056e-34
      28.0000   5.14290e-34
      28.1000   2.59569e-34
      28.2000   1.24886e-34
      28.3000   7.01301e-35
      28.4000   3.02446e-35
      28.5000   1.83454e-35
      28.6000   7.16221e-36
      28.7000   4.67448e-36
      28.8000   2.20074e-36
      28.9000   1.21666e-36
      29.0000   6.58417e-37
      29.1000   3.04905e-37
      29.2000   1.82328e-37
      29.3000   7.36692e-38
      29.4000   4.74827e-38
      29.5000   2.14466e-38
      29.6000   1.17304e-38
      29.7000   6.32424e-39
      29.8000   2.76404e-39
      29.9000   1.67333e-39
      30.0000   6.23312e-40
      30.1000   4.09609e-40
      30.2000   1.97132e-40
      30.3000   9.45582e-41
      30.4000   5.47641e-41
      30.5000   2.18659e-41
      30.6000   1.39233e-41
      30.7000   6.03259e-42
      30.8000   3.11509e-42
      30.9000   1.70678e-42
      31.0000   6.58610e-43
      31.1000   4.11982e-43
      31.2000   1.66755e-43
      31.3000   9.24857e-44
      31.4000   4.48416e-44
      31.5000   1.96182e-44
      31.6000   9.80909e-45
      31.7000   2.80260e-45
      31.8000   2.80260e-45
      31.9000   2.80260e-45
      32.0000       0.00000
      32.1000       0.00000
      32.2000       0.00000
      32.3000       0.00000
      32.4000       0.00000
      32.5000       0.00000
      32.6000       0.00000
      32.7000       0.00000
      32.8000       0.00000
      32.9000       0.00000
      33.0000       0.00000
      33.1000       0.00000
      33.2000       0.00000
      33.3000       0.00000
      33.4000       0.00000
      33.5000       0.00000
      33.6000       0.00000
      33.7000       0.00000
      33.8000       0.00000
      33.9000       0.00000
      34.0000       0.00000
      34.1000       0.00000
      34.2000       0.00000
      34.3000       0.00000
      34.4000       0.00000
      34.5000       0.00000
      34.6000       0.00000
      34.7000       0.00000
      34.8000       0.00000
      34.9000       0.00000
      35.0000       0.00000
      35.1000       0.00000
      35.2000       0.00000
      35.3000       0.00000
      35.4000       0.00000
      35.5000       0.00000
      35.6000       0.00000
      35.7000       0.00000
      35.8000       0.00000
      35.9000       0.00000
      36.0000       0.00000
      36.1000       0.00000
      36.2000       0.00000
      36.3000       0.00000
      36.4000       0.00000
      36.5000       0.00000
      36.6000       0.00000
      36.7000       0.00000
      36.8000       0.00000
      36.9000       0.00000
      37.0000       0.00000
      37.1000       0.00000
      37.2000       0.00000
      37.3000       0.00000
      37.4000       0.00000
      37.5000       0.00000
      37.6000       0.00000
      37.7000       0.00000
      37.8000       0.00000
      37.9000       0.00000
      38.0000       0.00000
      38.1000       0.00000
      38.2000       0.00000
      38.3000       0.00000
      38.4000       0.00000
      38.5000       0.00000
      38.6000       0.00000
      38.7000       0.00000
      38.8000       0.00000
      38.9000       0.00000
      39.0000       0.00000
      39.1000       0.00000
      39.2000       0.00000
      39.3000       0.00000
      39.4000       0.00000
      39.5000       0.00000
      39.6000       0.00000
      39.7000       0.00000
      39.8000       0.00000
      39.9000       0.00000
      40.0000       0.00000
      40.1000       0.00000
      40.2000       0.00000
      40.3000       0.00000
      40.4000       0.00000
      40.5000       0.00000
      40.6000       0.00000
      40.7000       0.00000
      40.8000       0.00000
      40.9000       0.00000
      41.0000       0.00000
      41.1000       0.00000
      41.2000       0.00000
      41.3000       0.00000
      41.4000       0.00000
      41.5000       0.00000
      41.6000       0.00000
      41.7000       0.00000
      41.8000       0.00000
      41.9000       0.00000
      42.0000       0.00000
      42.1000       0.00000
      42.2000       0.00000
      42.3000       0.00000
      42.4000       0.00000
      42.5000       0.00000
      42.6000       0.00000
      42.7000       0.00000
      42.8000       0.00000
      42.9000       0.00000
      43.0000       0.00000
      43.1000       0.00000
      43.2000       0.00000
      43.3000       0.00000
      43.4000       0.00000
      43.5000       0.00000
      43.6000       0.00000
      43.7000       0.00000
      43.8000       0.00000
      43.9000       0.00000
      44.0000       0.00000
      44.1000       0.00000
      44.2000       0.00000
      44.3000       0.00000
      44.4000       0.00000
      44.5000       0.00000
      44.6000       0.00000
      44.7000       0.00000
      44.8000       0.00000
      44.9000       0.00000
      45.0000       0.00000
      45.1000       0.00000
      45.2000       0.00000
      45.3000       0.00000
      45.4000       0.00000
      45.5000       0.00000
      45.6000       0.00000
      45.7000       0.00000
      45.8000       0.00000
      45.9000       0.00000
      46.0000       0.00000
      46.1000       0.00000
      46.2000       0.00000
      46.3000       0.00000
      46.4000       0.00000
      46.5000       0.00000
      46.6000       0.00000
      46.7000       0.00000
      46.8000       0.00000
      46.9000       0.00000
      47.0000       0.00000
      47.1000       0.00000
      47.2000       0.00000
      47.3000       0.00000
      47.4000       0.00000
      47.5000       0.00000
      47.6000       0.00000
      47.7000       0.00000
      47.8000       0.00000
      47.9000       0.00000
      48.0000       0.00000
      48.1000       0.00000
      48.2000       0.00000
      48.3000       0.00000
      48.4000       0.00000
      48.5000       0.00000
      48.6000       0.00000
      48.7000       0.00000
      48.8000       0.00000
      48.9000       0.00000
      49.0000       0.00000
      49.1000       0.00000
      49.2000       0.00000
      49.3000       0.00000
      49.4000       0.00000
      49.5000       0.00000
      49.6000       0.00000
      49.7000       0.00000
      49.8000       0.00000
      49.9000       0.00000
      50.0000       0.00000
      50.1000       0.00000
      50.2000       0.00000
      50.3000       0.00000
      50.4000       0.00000
      50.5000       0.00000
      50.6000       0.00000
      50.7000       0.00000
      50.8000       0.00000
      50.9000       0.00000
      51.0000       0.00000
      51.1000       0.00000
      51.2000       0.00000
      51.3000       0.00000
      51.4000       0.00000
      51.5000       0.00000
      51.6000       0.00000
      51.7000       0.00000
      51.8000       0.00000
      51.9000       0.00000
      52.0000       0.00000
      52.1000       0.00000
      52.2000       0.00000
      52.3000       0.00000
      52.4000       0.00000
      52.5000       0.00000
      52.6000       0.00000
      52.7000       0.00000
      52.8000       0.00000
      52.9000       0.00000
      53.0000       0.00000
      53.1000       0.00000
      53.2000       0.00000
      53.3000       0.00000
      53.4000       0.00000
      53.5000       0.00000
      53.6000       0.00000
      53.7000       0.00000
      53.8000       0.00000
      53.9000       0.00000
      54.0000       0.00000
      54.1000       0.00000
      54.2000       0.00000
      54.3000       0.00000
      54.4000       0.00000
      54.5000       0.00000
      54.6000       0.00000
      54.7000       0.00000
      54.8000       0.00000
      54.9000       0.00000
      55.0000       0.00000
      55.1000       0.00000
      55.2000       0.00000
      55.3000       0.00000
      55.4000       0.00000
      55.5000       0.00000
      55.6000       0.00000
      55.7000       0.00000
      55.8000       0.00000
      55.9000       0.00000
      56.0000       0.00000
      56.1000       0.00000
      56.2000       0.00000
      56.3000       0.00000
      56.4000       0.00000
      56.5000       0.00000
      56.6000       0.00000
      56.7000       0.00000
      56.8000       0.00000
      56.9000       0.00000
      57.0000       0.00000
      57.1000       0.00000
      57.2000       0.00000
      57.3000       0.00000
      57.4000       0.00000
      57.5000       0.00000
      57.6000       0.00000
      57.7000       0.00000
      57.8000       0.00000
      57.9000       0.00000
      58.0000       0.00000
      58.1000       0.00000
      58.2000       0.00000
      58.3000       0.00000
      58.4000       0.00000
      58.5000       0.00000
      58.6000       0.00000
      58.7000       0.00000
      58.8000       0.00000
      58.9000       0.00000
      59.0000       0.00000
      59.1000       0.00000
      59.2000       0.00000
      59.3000       0.00000
      59.4000       0.00000
      59.5000       0.00000
      59.6000       0.00000
      59.7000       0.00000
      59.8000       0.00000
      59.9000       0.00000
      60.0000       0.00000
      60.1000       0.00000
      60.2000       0.00000
      60.3000       0.00000
      60.4000       0.00000
      60.5000       0.00000
      60.6000       0.00000
      60.7000       0.00000
      60.8000       0.00000
      60.9000       0.00000
      61.0000       0.00000
      61.1000       0.00000
      61.2000       0.00000
      61.3000       0.00000
      61.4000       0.00000
      61.5000       0.00000
      61.6000       0.00000
      61.7000       0.00000
      61.8000       0.00000
      61.9000       0.00000
      62.0000       0.00000
      62.1000       0.00000
      62.2000       0.00000
      62.3000       0.00000
      62.4000       0.00000
      62.5000       0.00000
      62.6000       0.00000
      62.7000       0.00000
      62.8000       0.00000
      62.9000       0.00000
      63.0000       0.00000
      63.1000       0.00000
      63.2000       0.00000
      63.3000       0.00000
      63.4000       0.00000
      63.5000       0.00000
      63.6000       0.00000
      63.7000       0.00000
      63.8000       0.00000
      63.9000       0.00000
      64.0000       0.00000
      64.1000       0.00000
      64.2000       0.00000
      64.3000       0.00000
      64.4000       0.00000
      64.5000       0.00000
      64.6000       0.00000
      64.7000       0.00000
      64.8000       0.00000
      64.9000       0.00000
      65.0000       0.00000
      65.1000       0.00000
      65.2000       0.00000
      65.3000       0.00000
      65.4000       0.00000
      65.5000       0.00000
      65.6000       0.00000
      65.7000       0.00000
      65.8000       0.00000
      65.9000       0.00000
      66.0000       0.00000
      66.1000       0.00000
      66.2000       0.00000
      66.3000       0.00000
      66.4000       0.00000
      66.5000       0.00000
      66.6000       0.00000
      66.7000       0.00000
      66.8000       0.00000
      66.9000       0.00000
      67.0000       0.00000
      67.1000       0.00000
      67.2000       0.00000
      67.3000       0.00000
      67.4000       0.00000
      67.5000       0.00000
      67.6000       0.00000
      67.7000       0.00000
      67.8000       0.00000
      67.9000       0.00000
      68.0000       0.00000
      68.1000       0.00000
      68.2000       0.00000
      68.3000       0.00000
      68.4000       0.00000
      68.5000       0.00000
      68.6000       0.00000
      68.7000       0.00000
      68.8000       0.00000
      68.9000       0.00000
      69.0000       0.00000
      69.1000       0.00000
      69.2000       0.00000
      69.3000       0.00000
      69.4000       0.00000
      69.5000       0.00000
      69.6000       0.00000
      69.7000       0.00000
      69.8000       0.00000
      69.9000       0.00000
      70.0000       0.00000
      70.1000       0.00000
      70.2000       0.00000
      70.3000       0.00000
      70.4000       0.00000
      70.5000       0.00000
      70.6000       0.00000
      70.7000       0.00000
      70.8000       0.00000
      70.9000       0.00000
      71.0000       0.00000
      71.1000       0.00000
      71.2000       0.00000
      71.3000       0.00000
      71.4000       0.00000
      71.5000       0.00000
      71.6000       0.00000
      71.7000       0.00000
      71.8000       0.00000
      71.9000       0.00000
      72.0000       0.00000
