Filter Al-med
observation_date 22Sept2022
wavelength effective area
      1.00000   2.66384e-10
      1.10000   7.49522e-10
      1.20000   1.91512e-09
      1.30000   4.48759e-09
      1.40000   9.94631e-09
      1.50000   2.06560e-08
      1.60000   4.05595e-08
      1.70000   7.60789e-08
      1.80000   1.36311e-07
      1.90000   2.34788e-07
      2.00000   3.89498e-07
      2.10000   6.24936e-07
      2.20000   9.74161e-07
      2.30000   1.47326e-06
      2.40000   2.16526e-06
      2.50000   3.08199e-06
      2.60000   4.35706e-06
      2.70000   5.98509e-06
      2.80000   8.02210e-06
      2.90000   1.05756e-05
      3.00000   1.36490e-05
      3.10000   1.72877e-05
      3.20000   2.15262e-05
      3.30000   2.63681e-05
      3.40000   3.17691e-05
      3.50000   3.76788e-05
      3.60000   4.41652e-05
      3.70000   5.09334e-05
      3.80000   5.80779e-05
      3.90000   6.54272e-05
      4.00000   7.27850e-05
      4.10000   8.00596e-05
      4.20000   8.71547e-05
      4.30000   9.39535e-05
      4.40000   0.000100325
      4.50000   0.000106121
      4.60000   0.000111159
      4.70000   0.000115603
      4.80000   0.000119201
      4.90000   0.000120669
      5.00000   0.000124277
      5.10000   0.000125575
      5.20000   0.000126149
      5.30000   0.000125025
      5.40000   0.000122706
      5.50000   0.000119876
      5.60000   0.000112830
      5.70000   0.000111161
      5.80000   9.77632e-05
      5.90000   0.000111550
      6.00000   0.000111420
      6.10000   0.000105164
      6.20000   9.55564e-05
      6.30000   8.25551e-05
      6.40000   6.78406e-05
      6.50000   5.31412e-05
      6.60000   3.94495e-05
      6.70000   2.87391e-05
      6.80000   2.03376e-05
      6.90000   1.86909e-05
      7.00000   1.41812e-05
      7.10000   1.03978e-05
      7.20000   7.48080e-06
      7.30000   5.33418e-06
      7.40000   3.77661e-06
      7.50000   2.63060e-06
      7.60000   1.80010e-06
      7.70000   1.22748e-06
      7.80000   8.18788e-07
      7.90000   5.40966e-07
      8.00000      0.298571
      8.10000      0.314849
      8.20000      0.307817
      8.30000      0.299315
      8.40000      0.290258
      8.50000      0.280923
      8.60000      0.271271
      8.70000      0.261457
      8.80000      0.251452
      8.90000      0.241363
      9.00000      0.231244
      9.10000      0.221139
      9.20000      0.211091
      9.30000      0.201180
      9.40000      0.191402
      9.50000      0.181783
      9.60000      0.172404
      9.70000      0.163236
      9.80000      0.154267
      9.90000      0.145553
      10.0000      0.137095
      10.1000      0.128895
      10.2000      0.120965
      10.3000      0.113362
      10.4000      0.106091
      10.5000     0.0991273
      10.6000     0.0924734
      10.7000     0.0861292
      10.8000     0.0801067
      10.9000     0.0744166
      11.0000     0.0690230
      11.1000     0.0639220
      11.2000     0.0591060
      11.3000     0.0545698
      11.4000     0.0503040
      11.5000     0.0462990
      11.6000     0.0425464
      11.7000     0.0390503
      11.8000     0.0357908
      11.9000     0.0327808
      12.0000     0.0299636
      12.1000     0.0274625
      12.2000     0.0255962
      12.3000     0.0235493
      12.4000     0.0214615
      12.5000     0.0195156
      12.6000     0.0177138
      12.7000     0.0160508
      12.8000     0.0145208
      12.9000     0.0131170
      13.0000     0.0118312
      13.1000     0.0106553
      13.2000    0.00958177
      13.3000    0.00860327
      13.4000    0.00771304
      13.5000    0.00690653
      13.6000    0.00618215
      13.7000    0.00552581
      13.8000    0.00493183
      13.9000    0.00439516
      14.0000    0.00391086
      14.1000    0.00347426
      14.2000    0.00308119
      14.3000    0.00272784
      14.4000    0.00241072
      14.5000    0.00212848
      14.6000    0.00187887
      14.7000    0.00165555
      14.8000    0.00145598
      14.9000    0.00127787
      15.0000    0.00111915
      15.1000   0.000977965
      15.2000   0.000855514
      15.3000   0.000747269
      15.4000   0.000651209
      15.5000   0.000566110
      15.6000   0.000490885
      15.7000   0.000425588
      15.8000   0.000369274
      15.9000   0.000319613
      16.0000   0.000275906
      16.1000   0.000237534
      16.2000   0.000205052
      16.3000   0.000176817
      16.4000   0.000151970
      16.5000   0.000130163
      16.6000   0.000111525
      16.7000   9.56756e-05
      16.8000   8.17465e-05
      16.9000   6.95505e-05
      17.0000   5.92347e-05
      17.1000   5.05066e-05
      17.2000   4.28539e-05
      17.3000   3.61825e-05
      17.4000   3.07640e-05
      17.5000   2.61438e-05
      17.6000   2.21377e-05
      17.7000   1.87560e-05
      17.8000   1.60313e-05
      17.9000   1.36276e-05
      18.0000   1.15099e-05
      18.1000   9.78681e-06
      18.2000   8.26463e-06
      18.3000   6.91408e-06
      18.4000   5.78871e-06
      18.5000   4.82336e-06
      18.6000   3.97061e-06
      18.7000   3.26346e-06
      18.8000   2.68168e-06
      18.9000   2.17873e-06
      19.0000   1.78016e-06
      19.1000   1.45505e-06
      19.2000   1.17530e-06
      19.3000   9.60010e-07
      19.4000   7.82158e-07
      19.5000   6.29381e-07
      19.6000   5.16032e-07
      19.7000   4.19180e-07
      19.8000   3.36943e-07
      19.9000   2.76534e-07
      20.0000   2.23288e-07
      20.1000   1.80350e-07
      20.2000   1.46621e-07
      20.3000   1.17117e-07
      20.4000   9.50142e-08
      20.5000   7.63229e-08
      20.6000   6.06694e-08
      20.7000   4.91116e-08
      20.8000   3.88835e-08
      20.9000   3.11761e-08
      21.0000   2.48313e-08
      21.1000   1.95098e-08
      21.2000   1.56678e-08
      21.3000   1.22496e-08
      21.4000   9.76030e-09
      21.5000   7.67470e-09
      21.6000   5.99738e-09
      21.7000   4.75142e-09
      21.8000   3.64991e-09
      21.9000   2.90826e-09
      22.0000   2.24371e-09
      22.1000   1.75655e-09
      22.2000   1.35953e-09
      22.3000   1.04080e-09
      22.4000   7.98834e-10
      22.5000   5.82007e-10
      22.6000   4.17599e-10
      22.7000   2.81283e-10
      22.8000   2.70535e-10
      22.9000   2.68513e-10
      23.0000   2.72041e-10
      23.1000   2.52875e-10
      23.2000   2.12352e-10
      23.3000   1.72927e-10
      23.4000   1.34070e-10
      23.5000   1.06259e-10
      23.6000   8.12133e-11
      23.7000   6.44656e-11
      23.8000   4.86485e-11
      23.9000   3.86142e-11
      24.0000   2.91101e-11
      24.1000   2.29147e-11
      24.2000   1.72396e-11
      24.3000   1.34812e-11
      24.4000   1.01356e-11
      24.5000   7.88413e-12
      24.6000   5.92439e-12
      24.7000   4.58708e-12
      24.8000   3.44374e-12
      24.9000   2.66197e-12
      25.0000   1.99794e-12
      25.1000   1.53990e-12
      25.2000   1.15201e-12
      25.3000   8.87384e-13
      25.4000   6.61551e-13
      25.5000   5.09074e-13
      25.6000   3.77174e-13
      25.7000   2.90356e-13
      25.8000   2.13560e-13
      25.9000   1.64601e-13
      26.0000   1.19978e-13
      26.1000   9.26895e-14
      26.2000   6.68605e-14
      26.3000   5.18269e-14
      26.4000   3.69435e-14
      26.5000   2.87592e-14
      26.6000   2.06197e-14
      26.7000   1.58290e-14
      26.8000   1.14557e-14
      26.9000   8.63919e-15
      27.0000   6.31793e-15
      27.1000   4.67129e-15
      27.2000   3.45408e-15
      27.3000   2.50294e-15
      27.4000   1.88140e-15
      27.5000   1.33908e-15
      27.6000   1.01622e-15
      27.7000   7.03986e-16
      27.8000   5.40639e-16
      27.9000   3.78187e-16
      28.0000   2.84063e-16
      28.1000   2.03579e-16
      28.2000   1.48026e-16
      28.3000   1.09126e-16
      28.4000   7.71442e-17
      28.5000   5.81160e-17
      28.6000   3.98855e-17
      28.7000   3.09495e-17
      28.8000   2.20636e-17
      28.9000   1.66290e-17
      29.0000   1.21936e-17
      29.1000   8.81598e-18
      29.2000   6.63040e-18
      29.3000   4.60996e-18
      29.4000   3.54672e-18
      29.5000   2.48956e-18
      29.6000   1.86605e-18
      29.7000   1.35860e-18
      29.8000   9.65562e-19
      29.9000   7.25250e-19
      30.0000   4.91304e-19
      30.1000   3.79047e-19
      30.2000   2.67435e-19
      30.3000   1.95864e-19
      30.4000   1.47255e-19
      30.5000   1.03852e-19
      30.6000   7.89961e-20
      30.7000   5.42838e-20
      30.8000   4.00311e-20
      30.9000   2.89591e-20
      31.0000   1.98110e-20
      31.1000   1.49230e-20
      31.2000   1.00636e-20
      31.3000   7.45918e-21
      31.4000   5.34600e-21
      31.5000   3.62674e-21
      31.6000   2.72175e-21
      31.7000   1.82210e-21
      31.8000   1.33706e-21
      31.9000   9.57692e-22
      32.0000   6.36476e-22
      32.1000   4.78998e-22
      32.2000   3.22450e-22
      32.3000   2.30085e-22
      32.4000   1.66167e-22
      32.5000   1.06762e-22
      32.6000   8.11009e-23
      32.7000   5.55912e-23
      32.8000   3.79139e-23
      32.9000   2.78307e-23
      33.0000   1.78075e-23
      33.1000   1.31669e-23
      33.2000   9.27399e-24
      33.3000   5.95882e-24
      33.4000   4.47096e-24
      33.5000   2.99168e-24
      33.6000   2.03747e-24
      33.7000   1.48198e-24
      33.8000   9.29651e-25
      33.9000   6.82719e-25
      34.0000   4.78960e-25
      34.1000   2.97755e-25
      34.2000   2.22938e-25
      34.3000   1.48523e-25
      34.4000   9.54590e-26
      34.5000   6.97019e-26
      34.6000   4.40855e-26
      34.7000   2.97652e-26
      34.8000   2.07093e-26
      34.9000   1.17024e-26
      35.0000   8.36619e-27
      35.1000   5.62903e-27
      35.2000   3.11191e-27
      35.3000   2.30008e-27
      35.4000   1.49265e-27
      35.5000   8.52529e-28
      35.6000   6.18881e-28
      35.7000   3.86506e-28
      35.8000   2.28635e-28
      35.9000   1.63070e-28
      36.0000   9.78629e-29
      36.1000   6.00418e-29
      36.2000   4.21102e-29
      36.3000   2.42769e-29
      36.4000   1.54427e-29
      36.5000   1.06649e-29
      36.6000   5.91380e-30
      36.7000   3.88957e-30
      36.8000   2.65084e-30
      36.9000   1.41903e-30
      37.0000   9.59779e-31
      37.1000   6.47291e-31
      37.2000   3.36529e-31
      37.3000   2.32028e-31
      37.4000   1.55359e-31
      37.5000   7.91207e-32
      37.6000   5.49447e-32
      37.7000   3.66646e-32
      37.8000   1.84875e-32
      37.9000   1.27421e-32
      38.0000   8.50759e-33
      38.1000   4.29685e-33
      38.2000   2.89192e-33
      38.3000   1.93956e-33
      38.4000   9.92551e-34
      38.5000   6.41713e-34
      38.6000   4.33960e-34
      38.7000   2.27379e-34
      38.8000   1.39115e-34
      38.9000   9.51725e-35
      39.0000   5.14768e-35
      39.1000   2.94311e-35
      39.2000   2.04246e-35
      39.3000   1.14687e-35
      39.4000   6.06849e-36
      39.5000   4.28074e-36
      39.6000   2.50322e-36
      39.7000   1.21787e-36
      39.8000   8.74492e-37
      39.9000   5.33056e-37
      40.0000   2.37566e-37
      40.1000   1.73777e-37
      40.2000   1.10349e-37
      40.3000   4.72878e-38
      40.4000   3.35257e-38
      40.5000   2.21376e-38
      40.6000   1.08140e-38
      40.7000   6.26748e-39
      40.8000   4.29238e-39
      40.9000   2.32872e-39
      41.0000   1.13308e-39
      41.1000   8.02612e-40
      41.2000   4.74065e-40
      41.3000   1.97841e-40
      41.4000   1.44527e-40
      41.5000   9.15104e-41
      41.6000   3.88034e-41
      41.7000   2.50328e-41
      41.8000   1.67862e-41
      41.9000   8.58856e-42
      42.0000   4.16606e-42
      42.1000   2.93012e-42
      42.2000   1.70258e-42
      42.3000   6.64215e-43
      42.4000   4.86251e-43
      42.5000   3.09687e-43
      42.6000   1.34525e-43
      42.7000   7.70714e-44
      42.8000   5.04467e-44
      42.9000   2.52234e-44
      43.0000   1.26117e-44
      43.1000   9.80909e-45
      43.2000   2.80260e-45
      43.3000       0.00000
      43.4000   2.80260e-45
      43.5000   2.80260e-45
      43.6000   2.80260e-45
      43.7000       0.00000
      43.8000       0.00000
      43.9000       0.00000
      44.0000       0.00000
      44.1000       0.00000
      44.2000       0.00000
      44.3000       0.00000
      44.4000       0.00000
      44.5000       0.00000
      44.6000       0.00000
      44.7000       0.00000
      44.8000       0.00000
      44.9000       0.00000
      45.0000       0.00000
      45.1000       0.00000
      45.2000       0.00000
      45.3000       0.00000
      45.4000       0.00000
      45.5000       0.00000
      45.6000       0.00000
      45.7000       0.00000
      45.8000       0.00000
      45.9000       0.00000
      46.0000       0.00000
      46.1000       0.00000
      46.2000       0.00000
      46.3000       0.00000
      46.4000       0.00000
      46.5000       0.00000
      46.6000       0.00000
      46.7000       0.00000
      46.8000       0.00000
      46.9000       0.00000
      47.0000       0.00000
      47.1000       0.00000
      47.2000       0.00000
      47.3000       0.00000
      47.4000       0.00000
      47.5000       0.00000
      47.6000       0.00000
      47.7000       0.00000
      47.8000       0.00000
      47.9000       0.00000
      48.0000       0.00000
      48.1000       0.00000
      48.2000       0.00000
      48.3000       0.00000
      48.4000       0.00000
      48.5000       0.00000
      48.6000       0.00000
      48.7000       0.00000
      48.8000       0.00000
      48.9000       0.00000
      49.0000       0.00000
      49.1000       0.00000
      49.2000       0.00000
      49.3000       0.00000
      49.4000       0.00000
      49.5000       0.00000
      49.6000       0.00000
      49.7000       0.00000
      49.8000       0.00000
      49.9000       0.00000
      50.0000       0.00000
      50.1000       0.00000
      50.2000       0.00000
      50.3000       0.00000
      50.4000       0.00000
      50.5000       0.00000
      50.6000       0.00000
      50.7000       0.00000
      50.8000       0.00000
      50.9000       0.00000
      51.0000       0.00000
      51.1000       0.00000
      51.2000       0.00000
      51.3000       0.00000
      51.4000       0.00000
      51.5000       0.00000
      51.6000       0.00000
      51.7000       0.00000
      51.8000       0.00000
      51.9000       0.00000
      52.0000       0.00000
      52.1000       0.00000
      52.2000       0.00000
      52.3000       0.00000
      52.4000       0.00000
      52.5000       0.00000
      52.6000       0.00000
      52.7000       0.00000
      52.8000       0.00000
      52.9000       0.00000
      53.0000       0.00000
      53.1000       0.00000
      53.2000       0.00000
      53.3000       0.00000
      53.4000       0.00000
      53.5000       0.00000
      53.6000       0.00000
      53.7000       0.00000
      53.8000       0.00000
      53.9000       0.00000
      54.0000       0.00000
      54.1000       0.00000
      54.2000       0.00000
      54.3000       0.00000
      54.4000       0.00000
      54.5000       0.00000
      54.6000       0.00000
      54.7000       0.00000
      54.8000       0.00000
      54.9000       0.00000
      55.0000       0.00000
      55.1000       0.00000
      55.2000       0.00000
      55.3000       0.00000
      55.4000       0.00000
      55.5000       0.00000
      55.6000       0.00000
      55.7000       0.00000
      55.8000       0.00000
      55.9000       0.00000
      56.0000       0.00000
      56.1000       0.00000
      56.2000       0.00000
      56.3000       0.00000
      56.4000       0.00000
      56.5000       0.00000
      56.6000       0.00000
      56.7000       0.00000
      56.8000       0.00000
      56.9000       0.00000
      57.0000       0.00000
      57.1000       0.00000
      57.2000       0.00000
      57.3000       0.00000
      57.4000       0.00000
      57.5000       0.00000
      57.6000       0.00000
      57.7000       0.00000
      57.8000       0.00000
      57.9000       0.00000
      58.0000       0.00000
      58.1000       0.00000
      58.2000       0.00000
      58.3000       0.00000
      58.4000       0.00000
      58.5000       0.00000
      58.6000       0.00000
      58.7000       0.00000
      58.8000       0.00000
      58.9000       0.00000
      59.0000       0.00000
      59.1000       0.00000
      59.2000       0.00000
      59.3000       0.00000
      59.4000       0.00000
      59.5000       0.00000
      59.6000       0.00000
      59.7000       0.00000
      59.8000       0.00000
      59.9000       0.00000
      60.0000       0.00000
      60.1000       0.00000
      60.2000       0.00000
      60.3000       0.00000
      60.4000       0.00000
      60.5000       0.00000
      60.6000       0.00000
      60.7000       0.00000
      60.8000       0.00000
      60.9000       0.00000
      61.0000       0.00000
      61.1000       0.00000
      61.2000       0.00000
      61.3000       0.00000
      61.4000       0.00000
      61.5000       0.00000
      61.6000       0.00000
      61.7000       0.00000
      61.8000       0.00000
      61.9000       0.00000
      62.0000       0.00000
      62.1000       0.00000
      62.2000       0.00000
      62.3000       0.00000
      62.4000       0.00000
      62.5000       0.00000
      62.6000       0.00000
      62.7000       0.00000
      62.8000       0.00000
      62.9000       0.00000
      63.0000       0.00000
      63.1000       0.00000
      63.2000       0.00000
      63.3000       0.00000
      63.4000       0.00000
      63.5000       0.00000
      63.6000       0.00000
      63.7000       0.00000
      63.8000       0.00000
      63.9000       0.00000
      64.0000       0.00000
      64.1000       0.00000
      64.2000       0.00000
      64.3000       0.00000
      64.4000       0.00000
      64.5000       0.00000
      64.6000       0.00000
      64.7000       0.00000
      64.8000       0.00000
      64.9000       0.00000
      65.0000       0.00000
      65.1000       0.00000
      65.2000       0.00000
      65.3000       0.00000
      65.4000       0.00000
      65.5000       0.00000
      65.6000       0.00000
      65.7000       0.00000
      65.8000       0.00000
      65.9000       0.00000
      66.0000       0.00000
      66.1000       0.00000
      66.2000       0.00000
      66.3000       0.00000
      66.4000       0.00000
      66.5000       0.00000
      66.6000       0.00000
      66.7000       0.00000
      66.8000       0.00000
      66.9000       0.00000
      67.0000       0.00000
      67.1000       0.00000
      67.2000       0.00000
      67.3000       0.00000
      67.4000       0.00000
      67.5000       0.00000
      67.6000       0.00000
      67.7000       0.00000
      67.8000       0.00000
      67.9000       0.00000
      68.0000       0.00000
      68.1000       0.00000
      68.2000       0.00000
      68.3000       0.00000
      68.4000       0.00000
      68.5000       0.00000
      68.6000       0.00000
      68.7000       0.00000
      68.8000       0.00000
      68.9000       0.00000
      69.0000       0.00000
      69.1000       0.00000
      69.2000       0.00000
      69.3000       0.00000
      69.4000       0.00000
      69.5000       0.00000
      69.6000       0.00000
      69.7000       0.00000
      69.8000       0.00000
      69.9000       0.00000
      70.0000       0.00000
      70.1000       0.00000
      70.2000       0.00000
      70.3000       0.00000
      70.4000       0.00000
      70.5000       0.00000
      70.6000       0.00000
      70.7000       0.00000
      70.8000       0.00000
      70.9000       0.00000
      71.0000       0.00000
      71.1000       0.00000
      71.2000       0.00000
      71.3000       0.00000
      71.4000       0.00000
      71.5000       0.00000
      71.6000       0.00000
      71.7000       0.00000
      71.8000       0.00000
      71.9000       0.00000
      72.0000       0.00000
