Filter Al-med
observation_date 22-Sept-2019 22:40:45
wavelength effective area 
      1.00000   2.66385e-10
      1.10000   7.49524e-10
      1.20000   1.91513e-09
      1.30000   4.48762e-09
      1.40000   9.94637e-09
      1.50000   2.06562e-08
      1.60000   4.05599e-08
      1.70000   7.60797e-08
      1.80000   1.36313e-07
      1.90000   2.34792e-07
      2.00000   3.89505e-07
      2.10000   6.24949e-07
      2.20000   9.74184e-07
      2.30000   1.47331e-06
      2.40000   2.16533e-06
      2.50000   3.08210e-06
      2.60000   4.35724e-06
      2.70000   5.98536e-06
      2.80000   8.02251e-06
      2.90000   1.05762e-05
      3.00000   1.36499e-05
      3.10000   1.72889e-05
      3.20000   2.15279e-05
      3.30000   2.63703e-05
      3.40000   3.17721e-05
      3.50000   3.76826e-05
      3.60000   4.41701e-05
      3.70000   5.09395e-05
      3.80000   5.80854e-05
      3.90000   6.54363e-05
      4.00000   7.27960e-05
      4.10000   8.00725e-05
      4.20000   8.71698e-05
      4.30000   9.39710e-05
      4.40000   0.000100345
      4.50000   0.000106143
      4.60000   0.000111184
      4.70000   0.000115631
      4.80000   0.000119232
      4.90000   0.000120702
      5.00000   0.000124313
      5.10000   0.000125613
      5.20000   0.000126190
      5.30000   0.000125069
      5.40000   0.000122750
      5.50000   0.000119922
      5.60000   0.000112875
      5.70000   0.000111209
      5.80000   9.78070e-05
      5.90000   0.000111602
      6.00000   0.000111475
      6.10000   0.000105219
      6.20000   9.56083e-05
      6.30000   8.26021e-05
      6.40000   6.78810e-05
      6.50000   5.31743e-05
      6.60000   3.94752e-05
      6.70000   2.87586e-05
      6.80000   2.03520e-05
      6.90000   1.87047e-05
      7.00000   1.41921e-05
      7.10000   1.04062e-05
      7.20000   7.48706e-06
      7.30000   5.33882e-06
      7.40000   3.78003e-06
      7.50000   2.63307e-06
      7.60000   1.80186e-06
      7.70000   1.22872e-06
      7.80000   8.19650e-07
      7.90000   5.41557e-07
      8.00000      0.298908
      8.10000      0.315218
      8.20000      0.308190
      8.30000      0.299691
      8.40000      0.290635
      8.50000      0.281300
      8.60000      0.271648
      8.70000      0.261832
      8.80000      0.251825
      8.90000      0.241732
      9.00000      0.231609
      9.10000      0.221499
      9.20000      0.211446
      9.30000      0.201529
      9.40000      0.191744
      9.50000      0.182117
      9.60000      0.172730
      9.70000      0.163555
      9.80000      0.154577
      9.90000      0.145854
      10.0000      0.137386
      10.1000      0.129176
      10.2000      0.121237
      10.3000      0.113623
      10.4000      0.106343
      10.5000     0.0993685
      10.6000     0.0927045
      10.7000     0.0863501
      10.8000     0.0803176
      10.9000     0.0746175
      11.0000     0.0692142
      11.1000     0.0641036
      11.2000     0.0592781
      11.3000     0.0547327
      11.4000     0.0504579
      11.5000     0.0464440
      11.6000     0.0426829
      11.7000     0.0391786
      11.8000     0.0359113
      11.9000     0.0328937
      12.0000     0.0300692
      12.1000     0.0275615
      12.2000     0.0256905
      12.3000     0.0236381
      12.4000     0.0215443
      12.5000     0.0195925
      12.6000     0.0177851
      12.7000     0.0161169
      12.8000     0.0145819
      12.9000     0.0131733
      13.0000     0.0118831
      13.1000     0.0107030
      13.2000    0.00962561
      13.3000    0.00864345
      13.4000    0.00774980
      13.5000    0.00694011
      13.6000    0.00621281
      13.7000    0.00555376
      13.8000    0.00495726
      13.9000    0.00441826
      14.0000    0.00393182
      14.1000    0.00349324
      14.2000    0.00309834
      14.3000    0.00274331
      14.4000    0.00242465
      14.5000    0.00214101
      14.6000    0.00189013
      14.7000    0.00166566
      14.8000    0.00146504
      14.9000    0.00128596
      15.0000    0.00112637
      15.1000   0.000984388
      15.2000   0.000861234
      15.3000   0.000752355
      15.4000   0.000655720
      15.5000   0.000570101
      15.6000   0.000494406
      15.7000   0.000428695
      15.8000   0.000372016
      15.9000   0.000322027
      16.0000   0.000278025
      16.1000   0.000239389
      16.2000   0.000206680
      16.3000   0.000178244
      16.4000   0.000153217
      16.5000   0.000131249
      16.6000   0.000112470
      16.7000   9.64996e-05
      16.8000   8.24618e-05
      16.9000   7.01688e-05
      17.0000   5.97697e-05
      17.1000   5.09700e-05
      17.2000   4.32533e-05
      17.3000   3.65250e-05
      17.4000   3.10597e-05
      17.5000   2.63987e-05
      17.6000   2.23567e-05
      17.7000   1.89442e-05
      17.8000   1.61943e-05
      17.9000   1.37680e-05
      18.0000   1.16301e-05
      18.1000   9.89035e-06
      18.2000   8.35323e-06
      18.3000   6.98920e-06
      18.4000   5.85246e-06
      18.5000   4.87720e-06
      18.6000   4.01554e-06
      18.7000   3.30090e-06
      18.8000   2.71287e-06
      18.9000   2.20442e-06
      19.0000   1.80143e-06
      19.1000   1.47268e-06
      19.2000   1.18973e-06
      19.3000   9.71954e-07
      19.4000   7.92019e-07
      19.5000   6.37420e-07
      19.6000   5.22709e-07
      19.7000   4.24674e-07
      19.8000   3.41415e-07
      19.9000   2.80251e-07
      20.0000   2.26328e-07
      20.1000   1.82836e-07
      20.2000   1.48668e-07
      20.3000   1.18772e-07
      20.4000   9.63735e-08
      20.5000   7.74282e-08
      20.6000   6.15588e-08
      20.7000   4.98403e-08
      20.8000   3.94675e-08
      20.9000   3.16500e-08
      21.0000   2.52134e-08
      21.1000   1.98135e-08
      21.2000   1.59146e-08
      21.3000   1.24449e-08
      21.4000   9.91775e-09
      21.5000   7.79996e-09
      21.6000   6.09641e-09
      21.7000   4.83079e-09
      21.8000   3.71159e-09
      21.9000   2.95799e-09
      22.0000   2.28252e-09
      22.1000   1.78728e-09
      22.2000   1.38359e-09
      22.3000   1.05943e-09
      22.4000   8.13295e-10
      22.5000   5.92663e-10
      22.6000   4.25331e-10
      22.7000   2.86324e-10
      22.8000   2.74714e-10
      22.9000   2.72219e-10
      23.0000   2.75793e-10
      23.1000   2.56383e-10
      23.2000   2.15354e-10
      23.3000   1.75399e-10
      23.4000   1.36007e-10
      23.5000   1.07811e-10
      23.6000   8.24127e-11
      23.7000   6.54279e-11
      23.8000   4.93826e-11
      23.9000   3.92031e-11
      24.0000   2.95588e-11
      24.1000   2.32717e-11
      24.2000   1.75110e-11
      24.3000   1.36957e-11
      24.4000   1.02986e-11
      24.5000   8.01221e-12
      24.6000   6.02164e-12
      24.7000   4.66317e-12
      24.8000   3.50145e-12
      24.9000   2.70704e-12
      25.0000   2.03212e-12
      25.1000   1.56651e-12
      25.2000   1.17212e-12
      25.3000   9.03032e-13
      25.4000   6.73334e-13
      25.5000   5.18233e-13
      25.6000   3.84027e-13
      25.7000   2.95683e-13
      25.8000   2.17517e-13
      25.9000   1.67681e-13
      26.0000   1.22244e-13
      26.1000   9.44571e-14
      26.2000   6.81479e-14
      26.3000   5.28344e-14
      26.4000   3.76685e-14
      26.5000   2.93289e-14
      26.6000   2.10321e-14
      26.7000   1.61486e-14
      26.8000   1.16892e-14
      26.9000   8.81689e-15
      27.0000   6.44910e-15
      27.1000   4.76917e-15
      27.2000   3.52713e-15
      27.3000   2.55636e-15
      27.4000   1.92193e-15
      27.5000   1.36819e-15
      27.6000   1.03851e-15
      27.7000   7.19570e-16
      27.8000   5.52716e-16
      27.9000   3.86711e-16
      28.0000   2.90523e-16
      28.1000   2.08250e-16
      28.2000   1.51453e-16
      28.3000   1.11675e-16
      28.4000   7.89622e-17
      28.5000   5.94976e-17
      28.6000   4.08421e-17
      28.7000   3.16984e-17
      28.8000   2.26022e-17
      28.9000   1.70384e-17
      29.0000   1.24965e-17
      29.1000   9.03683e-18
      29.2000   6.79794e-18
      29.3000   4.72745e-18
      29.4000   3.63789e-18
      29.5000   2.55410e-18
      29.6000   1.91484e-18
      29.7000   1.39442e-18
      29.8000   9.91239e-19
      29.9000   7.44699e-19
      30.0000   5.04590e-19
      30.1000   3.89383e-19
      30.2000   2.74789e-19
      30.3000   2.01295e-19
      30.4000   1.51372e-19
      30.5000   1.06780e-19
      30.6000   8.12415e-20
      30.7000   5.58394e-20
      30.8000   4.11877e-20
      30.9000   2.98027e-20
      31.0000   2.03929e-20
      31.1000   1.53649e-20
      31.2000   1.03639e-20
      31.3000   7.68361e-21
      31.4000   5.50814e-21
      31.5000   3.73763e-21
      31.6000   2.80563e-21
      31.7000   1.87870e-21
      31.8000   1.37893e-21
      31.9000   9.87919e-22
      32.0000   6.56722e-22
      32.1000   4.94355e-22
      32.2000   3.32870e-22
      32.3000   2.37578e-22
      32.4000   1.71621e-22
      32.5000   1.10294e-22
      32.6000   8.38037e-23
      32.7000   5.74576e-23
      32.8000   3.91961e-23
      32.9000   2.87789e-23
      33.0000   1.84187e-23
      33.1000   1.36220e-23
      33.2000   9.59671e-24
      33.3000   6.16757e-24
      33.4000   4.62865e-24
      33.5000   3.09792e-24
      33.6000   2.11031e-24
      33.7000   1.53533e-24
      33.8000   9.63339e-25
      33.9000   7.07625e-25
      34.0000   4.96548e-25
      34.1000   3.08762e-25
      34.2000   2.31235e-25
      34.3000   1.54087e-25
      34.4000   9.90589e-26
      34.5000   7.23479e-26
      34.6000   4.57701e-26
      34.7000   3.09101e-26
      34.8000   2.15110e-26
      34.9000   1.21583e-26
      35.0000   8.69430e-27
      35.1000   5.85124e-27
      35.2000   3.23555e-27
      35.3000   2.39205e-27
      35.4000   1.55273e-27
      35.5000   8.87061e-28
      35.6000   6.44110e-28
      35.7000   4.02362e-28
      35.8000   2.38075e-28
      35.9000   1.69845e-28
      36.0000   1.01955e-28
      36.1000   6.25681e-29
      36.2000   4.38932e-29
      36.3000   2.53113e-29
      36.4000   1.61048e-29
      36.5000   1.11251e-29
      36.6000   6.17053e-30
      36.7000   4.05948e-30
      36.8000   2.76736e-30
      36.9000   1.48179e-30
      37.0000   1.00249e-30
      37.1000   6.76273e-31
      37.2000   3.51689e-31
      37.3000   2.42545e-31
      37.4000   1.62444e-31
      37.5000   8.27508e-32
      37.6000   5.74810e-32
      37.7000   3.83674e-32
      37.8000   1.93513e-32
      37.9000   1.33410e-32
      38.0000   8.90990e-33
      38.1000   4.50126e-33
      38.2000   3.03032e-33
      38.3000   2.03293e-33
      38.4000   1.04062e-33
      38.5000   6.72975e-34
      38.6000   4.55227e-34
      38.7000   2.38588e-34
      38.8000   1.46014e-34
      38.9000   9.99200e-35
      39.0000   5.40597e-35
      39.1000   3.09165e-35
      39.2000   2.14614e-35
      39.3000   1.20543e-35
      39.4000   6.38013e-36
      39.5000   4.50185e-36
      39.6000   2.63327e-36
      39.7000   1.28151e-36
      39.8000   9.20450e-37
      39.9000   5.61232e-37
      40.0000   2.50195e-37
      40.1000   1.83068e-37
      40.2000   1.16282e-37
      40.3000   4.98450e-38
      40.4000   3.53489e-38
      40.5000   2.33483e-38
      40.6000   1.14087e-38
      40.7000   6.61413e-39
      40.8000   4.53114e-39
      40.9000   2.45897e-39
      41.0000   1.19682e-39
      41.1000   8.48010e-40
      41.2000   5.01030e-40
      41.3000   2.09158e-40
      41.4000   1.52841e-40
      41.5000   9.68045e-41
      41.6000   4.10580e-41
      41.7000   2.64958e-41
      41.8000   1.77741e-41
      41.9000   9.09583e-42
      42.0000   4.41549e-42
      42.1000   3.10528e-42
      42.2000   1.80487e-42
      42.3000   7.03452e-43
      42.4000   5.14277e-43
      42.5000   3.29305e-43
      42.6000   1.44334e-43
      42.7000   8.26766e-44
      42.8000   5.46506e-44
      42.9000   2.94273e-44
      43.0000   1.26117e-44
      43.1000   9.80909e-45
      43.2000   7.00649e-45
      43.3000       0.00000
      43.4000   2.80260e-45
      43.5000   2.80260e-45
      43.6000   2.80260e-45
      43.7000       0.00000
      43.8000       0.00000
      43.9000       0.00000
      44.0000       0.00000
      44.1000       0.00000
      44.2000       0.00000
      44.3000       0.00000
      44.4000       0.00000
      44.5000       0.00000
      44.6000       0.00000
      44.7000       0.00000
      44.8000       0.00000
      44.9000       0.00000
      45.0000       0.00000
      45.1000       0.00000
      45.2000       0.00000
      45.3000       0.00000
      45.4000       0.00000
      45.5000       0.00000
      45.6000       0.00000
      45.7000       0.00000
      45.8000       0.00000
      45.9000       0.00000
      46.0000       0.00000
      46.1000       0.00000
      46.2000       0.00000
      46.3000       0.00000
      46.4000       0.00000
      46.5000       0.00000
      46.6000       0.00000
      46.7000       0.00000
      46.8000       0.00000
      46.9000       0.00000
      47.0000       0.00000
      47.1000       0.00000
      47.2000       0.00000
      47.3000       0.00000
      47.4000       0.00000
      47.5000       0.00000
      47.6000       0.00000
      47.7000       0.00000
      47.8000       0.00000
      47.9000       0.00000
      48.0000       0.00000
      48.1000       0.00000
      48.2000       0.00000
      48.3000       0.00000
      48.4000       0.00000
      48.5000       0.00000
      48.6000       0.00000
      48.7000       0.00000
      48.8000       0.00000
      48.9000       0.00000
      49.0000       0.00000
      49.1000       0.00000
      49.2000       0.00000
      49.3000       0.00000
      49.4000       0.00000
      49.5000       0.00000
      49.6000       0.00000
      49.7000       0.00000
      49.8000       0.00000
      49.9000       0.00000
      50.0000       0.00000
      50.1000       0.00000
      50.2000       0.00000
      50.3000       0.00000
      50.4000       0.00000
      50.5000       0.00000
      50.6000       0.00000
      50.7000       0.00000
      50.8000       0.00000
      50.9000       0.00000
      51.0000       0.00000
      51.1000       0.00000
      51.2000       0.00000
      51.3000       0.00000
      51.4000       0.00000
      51.5000       0.00000
      51.6000       0.00000
      51.7000       0.00000
      51.8000       0.00000
      51.9000       0.00000
      52.0000       0.00000
      52.1000       0.00000
      52.2000       0.00000
      52.3000       0.00000
      52.4000       0.00000
      52.5000       0.00000
      52.6000       0.00000
      52.7000       0.00000
      52.8000       0.00000
      52.9000       0.00000
      53.0000       0.00000
      53.1000       0.00000
      53.2000       0.00000
      53.3000       0.00000
      53.4000       0.00000
      53.5000       0.00000
      53.6000       0.00000
      53.7000       0.00000
      53.8000       0.00000
      53.9000       0.00000
      54.0000       0.00000
      54.1000       0.00000
      54.2000       0.00000
      54.3000       0.00000
      54.4000       0.00000
      54.5000       0.00000
      54.6000       0.00000
      54.7000       0.00000
      54.8000       0.00000
      54.9000       0.00000
      55.0000       0.00000
      55.1000       0.00000
      55.2000       0.00000
      55.3000       0.00000
      55.4000       0.00000
      55.5000       0.00000
      55.6000       0.00000
      55.7000       0.00000
      55.8000       0.00000
      55.9000       0.00000
      56.0000       0.00000
      56.1000       0.00000
      56.2000       0.00000
      56.3000       0.00000
      56.4000       0.00000
      56.5000       0.00000
      56.6000       0.00000
      56.7000       0.00000
      56.8000       0.00000
      56.9000       0.00000
      57.0000       0.00000
      57.1000       0.00000
      57.2000       0.00000
      57.3000       0.00000
      57.4000       0.00000
      57.5000       0.00000
      57.6000       0.00000
      57.7000       0.00000
      57.8000       0.00000
      57.9000       0.00000
      58.0000       0.00000
      58.1000       0.00000
      58.2000       0.00000
      58.3000       0.00000
      58.4000       0.00000
      58.5000       0.00000
      58.6000       0.00000
      58.7000       0.00000
      58.8000       0.00000
      58.9000       0.00000
      59.0000       0.00000
      59.1000       0.00000
      59.2000       0.00000
      59.3000       0.00000
      59.4000       0.00000
      59.5000       0.00000
      59.6000       0.00000
      59.7000       0.00000
      59.8000       0.00000
      59.9000       0.00000
      60.0000       0.00000
      60.1000       0.00000
      60.2000       0.00000
      60.3000       0.00000
      60.4000       0.00000
      60.5000       0.00000
      60.6000       0.00000
      60.7000       0.00000
      60.8000       0.00000
      60.9000       0.00000
      61.0000       0.00000
      61.1000       0.00000
      61.2000       0.00000
      61.3000       0.00000
      61.4000       0.00000
      61.5000       0.00000
      61.6000       0.00000
      61.7000       0.00000
      61.8000       0.00000
      61.9000       0.00000
      62.0000       0.00000
      62.1000       0.00000
      62.2000       0.00000
      62.3000       0.00000
      62.4000       0.00000
      62.5000       0.00000
      62.6000       0.00000
      62.7000       0.00000
      62.8000       0.00000
      62.9000       0.00000
      63.0000       0.00000
      63.1000       0.00000
      63.2000       0.00000
      63.3000       0.00000
      63.4000       0.00000
      63.5000       0.00000
      63.6000       0.00000
      63.7000       0.00000
      63.8000       0.00000
      63.9000       0.00000
      64.0000       0.00000
      64.1000       0.00000
      64.2000       0.00000
      64.3000       0.00000
      64.4000       0.00000
      64.5000       0.00000
      64.6000       0.00000
      64.7000       0.00000
      64.8000       0.00000
      64.9000       0.00000
      65.0000       0.00000
      65.1000       0.00000
      65.2000       0.00000
      65.3000       0.00000
      65.4000       0.00000
      65.5000       0.00000
      65.6000       0.00000
      65.7000       0.00000
      65.8000       0.00000
      65.9000       0.00000
      66.0000       0.00000
      66.1000       0.00000
      66.2000       0.00000
      66.3000       0.00000
      66.4000       0.00000
      66.5000       0.00000
      66.6000       0.00000
      66.7000       0.00000
      66.8000       0.00000
      66.9000       0.00000
      67.0000       0.00000
      67.1000       0.00000
      67.2000       0.00000
      67.3000       0.00000
      67.4000       0.00000
      67.5000       0.00000
      67.6000       0.00000
      67.7000       0.00000
      67.8000       0.00000
      67.9000       0.00000
      68.0000       0.00000
      68.1000       0.00000
      68.2000       0.00000
      68.3000       0.00000
      68.4000       0.00000
      68.5000       0.00000
      68.6000       0.00000
      68.7000       0.00000
      68.8000       0.00000
      68.9000       0.00000
      69.0000       0.00000
      69.1000       0.00000
      69.2000       0.00000
      69.3000       0.00000
      69.4000       0.00000
      69.5000       0.00000
      69.6000       0.00000
      69.7000       0.00000
      69.8000       0.00000
      69.9000       0.00000
      70.0000       0.00000
      70.1000       0.00000
      70.2000       0.00000
      70.3000       0.00000
      70.4000       0.00000
      70.5000       0.00000
      70.6000       0.00000
      70.7000       0.00000
      70.8000       0.00000
      70.9000       0.00000
      71.0000       0.00000
      71.1000       0.00000
      71.2000       0.00000
      71.3000       0.00000
      71.4000       0.00000
      71.5000       0.00000
      71.6000       0.00000
      71.7000       0.00000
      71.8000       0.00000
      71.9000       0.00000
      72.0000       0.00000
