Filter Al-med
observation_date 07Jan2024
wavelength effective area
      1.00000   2.66384e-10
      1.10000   7.49520e-10
      1.20000   1.91512e-09
      1.30000   4.48757e-09
      1.40000   9.94626e-09
      1.50000   2.06559e-08
      1.60000   4.05592e-08
      1.70000   7.60781e-08
      1.80000   1.36309e-07
      1.90000   2.34785e-07
      2.00000   3.89492e-07
      2.10000   6.24924e-07
      2.20000   9.74139e-07
      2.30000   1.47323e-06
      2.40000   2.16519e-06
      2.50000   3.08189e-06
      2.60000   4.35690e-06
      2.70000   5.98484e-06
      2.80000   8.02173e-06
      2.90000   1.05751e-05
      3.00000   1.36483e-05
      3.10000   1.72866e-05
      3.20000   2.15247e-05
      3.30000   2.63661e-05
      3.40000   3.17665e-05
      3.50000   3.76753e-05
      3.60000   4.41608e-05
      3.70000   5.09279e-05
      3.80000   5.80711e-05
      3.90000   6.54189e-05
      4.00000   7.27751e-05
      4.10000   8.00477e-05
      4.20000   8.71409e-05
      4.30000   9.39375e-05
      4.40000   0.000100307
      4.50000   0.000106100
      4.60000   0.000111136
      4.70000   0.000115578
      4.80000   0.000119173
      4.90000   0.000120639
      5.00000   0.000124244
      5.10000   0.000125539
      5.20000   0.000126112
      5.30000   0.000124986
      5.40000   0.000122665
      5.50000   0.000119834
      5.60000   0.000112788
      5.70000   0.000111118
      5.80000   9.77231e-05
      5.90000   0.000111502
      6.00000   0.000111370
      6.10000   0.000105114
      6.20000   9.55089e-05
      6.30000   8.25122e-05
      6.40000   6.78037e-05
      6.50000   5.31110e-05
      6.60000   3.94261e-05
      6.70000   2.87212e-05
      6.80000   2.03244e-05
      6.90000   1.86782e-05
      7.00000   1.41712e-05
      7.10000   1.03902e-05
      7.20000   7.47508e-06
      7.30000   5.32994e-06
      7.40000   3.77349e-06
      7.50000   2.62834e-06
      7.60000   1.79850e-06
      7.70000   1.22634e-06
      7.80000   8.18002e-07
      7.90000   5.40427e-07
      8.00000      0.298262
      8.10000      0.314512
      8.20000      0.307476
      8.30000      0.298972
      8.40000      0.289913
      8.50000      0.280578
      8.60000      0.270927
      8.70000      0.261114
      8.80000      0.251112
      8.90000      0.241026
      9.00000      0.230910
      9.10000      0.220810
      9.20000      0.210767
      9.30000      0.200862
      9.40000      0.191090
      9.50000      0.181477
      9.60000      0.172106
      9.70000      0.162946
      9.80000      0.153984
      9.90000      0.145278
      10.0000      0.136829
      10.1000      0.128638
      10.2000      0.120717
      10.3000      0.113123
      10.4000      0.105862
      10.5000     0.0989072
      10.6000     0.0922626
      10.7000     0.0859277
      10.8000     0.0799145
      10.9000     0.0742333
      11.0000     0.0688487
      11.1000     0.0637565
      11.2000     0.0589492
      11.3000     0.0544214
      11.4000     0.0501638
      11.5000     0.0461667
      11.6000     0.0424219
      11.7000     0.0389333
      11.8000     0.0356811
      11.9000     0.0326779
      12.0000     0.0298674
      12.1000     0.0273723
      12.2000     0.0255102
      12.3000     0.0234684
      12.4000     0.0213862
      12.5000     0.0194456
      12.6000     0.0176488
      12.7000     0.0159906
      12.8000     0.0144652
      12.9000     0.0130657
      13.0000     0.0117839
      13.1000     0.0106118
      13.2000    0.00954188
      13.3000    0.00856671
      13.4000    0.00767959
      13.5000    0.00687598
      13.6000    0.00615426
      13.7000    0.00550039
      13.8000    0.00490870
      13.9000    0.00437415
      14.0000    0.00389180
      14.1000    0.00345701
      14.2000    0.00306559
      14.3000    0.00271378
      14.4000    0.00239806
      14.5000    0.00211709
      14.6000    0.00186863
      14.7000    0.00164636
      14.8000    0.00144775
      14.9000    0.00127051
      15.0000    0.00111259
      15.1000   0.000972131
      15.2000   0.000850318
      15.3000   0.000742650
      15.4000   0.000647113
      15.5000   0.000562487
      15.6000   0.000487688
      15.7000   0.000422769
      15.8000   0.000366786
      15.9000   0.000317422
      16.0000   0.000273983
      16.1000   0.000235850
      16.2000   0.000203575
      16.3000   0.000175522
      16.4000   0.000150839
      16.5000   0.000129179
      16.6000   0.000110668
      16.7000   9.49286e-05
      16.8000   8.10980e-05
      16.9000   6.89900e-05
      17.0000   5.87499e-05
      17.1000   5.00867e-05
      17.2000   4.24921e-05
      17.3000   3.58723e-05
      17.4000   3.04963e-05
      17.5000   2.59129e-05
      17.6000   2.19394e-05
      17.7000   1.85856e-05
      17.8000   1.58838e-05
      17.9000   1.35005e-05
      18.0000   1.14011e-05
      18.1000   9.69311e-06
      18.2000   8.18446e-06
      18.3000   6.84612e-06
      18.4000   5.73105e-06
      18.5000   4.77467e-06
      18.6000   3.92998e-06
      18.7000   3.22961e-06
      18.8000   2.65348e-06
      18.9000   2.15551e-06
      19.0000   1.76093e-06
      19.1000   1.43913e-06
      19.2000   1.16226e-06
      19.3000   9.49221e-07
      19.4000   7.73253e-07
      19.5000   6.22122e-07
      19.6000   5.10004e-07
      19.7000   4.14220e-07
      19.8000   3.32906e-07
      19.9000   2.73179e-07
      20.0000   2.20545e-07
      20.1000   1.78107e-07
      20.2000   1.44775e-07
      20.3000   1.15624e-07
      20.4000   9.37885e-08
      20.5000   7.53263e-08
      20.6000   5.98676e-08
      20.7000   4.84547e-08
      20.8000   3.83572e-08
      20.9000   3.07491e-08
      21.0000   2.44872e-08
      21.1000   1.92362e-08
      21.2000   1.54455e-08
      21.3000   1.20738e-08
      21.4000   9.61857e-09
      21.5000   7.56195e-09
      21.6000   5.90826e-09
      21.7000   4.68000e-09
      21.8000   3.59442e-09
      21.9000   2.86354e-09
      22.0000   2.20882e-09
      22.1000   1.72892e-09
      22.2000   1.33790e-09
      22.3000   1.02406e-09
      22.4000   7.85840e-10
      22.5000   5.72435e-10
      22.6000   4.10654e-10
      22.7000   2.76754e-10
      22.8000   2.66772e-10
      22.9000   2.65169e-10
      23.0000   2.68656e-10
      23.1000   2.49711e-10
      23.2000   2.09644e-10
      23.3000   1.70698e-10
      23.4000   1.32323e-10
      23.5000   1.04859e-10
      23.6000   8.01323e-11
      23.7000   6.35982e-11
      23.8000   4.79870e-11
      23.9000   3.80836e-11
      24.0000   2.87058e-11
      24.1000   2.25932e-11
      24.2000   1.69952e-11
      24.3000   1.32881e-11
      24.4000   9.98892e-12
      24.5000   7.76884e-12
      24.6000   5.83686e-12
      24.7000   4.51862e-12
      24.8000   3.39182e-12
      24.9000   2.62143e-12
      25.0000   1.96720e-12
      25.1000   1.51598e-12
      25.2000   1.13393e-12
      25.3000   8.73317e-13
      25.4000   6.50960e-13
      25.5000   5.00844e-13
      25.6000   3.71017e-13
      25.7000   2.85570e-13
      25.8000   2.10006e-13
      25.9000   1.61836e-13
      26.0000   1.17943e-13
      26.1000   9.11025e-14
      26.2000   6.57049e-14
      26.3000   5.09228e-14
      26.4000   3.62930e-14
      26.5000   2.82480e-14
      26.6000   2.02498e-14
      26.7000   1.55425e-14
      26.8000   1.12464e-14
      26.9000   8.47988e-15
      27.0000   6.20036e-15
      27.1000   4.58357e-15
      27.2000   3.38863e-15
      27.3000   2.45508e-15
      27.4000   1.84511e-15
      27.5000   1.31301e-15
      27.6000   9.96259e-16
      27.7000   6.90036e-16
      27.8000   5.29831e-16
      27.9000   3.70559e-16
      28.0000   2.78283e-16
      28.1000   1.99400e-16
      28.2000   1.44961e-16
      28.3000   1.06847e-16
      28.4000   7.55189e-17
      28.5000   5.68810e-17
      28.6000   3.90306e-17
      28.7000   3.02805e-17
      28.8000   2.15826e-17
      28.9000   1.62633e-17
      29.0000   1.19232e-17
      29.1000   8.61883e-18
      29.2000   6.48087e-18
      29.3000   4.50511e-18
      29.4000   3.46538e-18
      29.5000   2.43199e-18
      29.6000   1.82254e-18
      29.7000   1.32665e-18
      29.8000   9.42673e-19
      29.9000   7.07916e-19
      30.0000   4.79465e-19
      30.1000   3.69838e-19
      30.2000   2.60884e-19
      30.3000   1.91027e-19
      30.4000   1.43589e-19
      30.5000   1.01246e-19
      30.6000   7.69980e-20
      30.7000   5.28996e-20
      30.8000   3.90022e-20
      30.9000   2.82089e-20
      31.0000   1.92937e-20
      31.1000   1.45303e-20
      31.2000   9.79662e-21
      31.3000   7.25975e-21
      31.4000   5.20195e-21
      31.5000   3.52826e-21
      31.6000   2.64727e-21
      31.7000   1.77185e-21
      31.8000   1.29990e-21
      31.9000   9.30872e-22
      32.0000   6.18513e-22
      32.1000   4.65376e-22
      32.2000   3.13211e-22
      32.3000   2.23442e-22
      32.4000   1.61333e-22
      32.5000   1.03633e-22
      32.6000   7.87065e-23
      32.7000   5.39383e-23
      32.8000   3.67785e-23
      32.9000   2.69913e-23
      33.0000   1.72666e-23
      33.1000   1.27642e-23
      33.2000   8.98849e-24
      33.3000   5.77418e-24
      33.4000   4.33151e-24
      33.5000   2.89775e-24
      33.6000   1.97308e-24
      33.7000   1.43485e-24
      33.8000   8.99889e-25
      33.9000   6.60721e-25
      34.0000   4.63426e-25
      34.1000   2.88036e-25
      34.2000   2.15614e-25
      34.3000   1.43613e-25
      34.4000   9.22828e-26
      34.5000   6.73680e-26
      34.6000   4.26000e-26
      34.7000   2.87559e-26
      34.8000   2.00026e-26
      34.9000   1.13005e-26
      35.0000   8.07708e-27
      35.1000   5.43330e-27
      35.2000   3.00303e-27
      35.3000   2.21910e-27
      35.4000   1.43977e-27
      35.5000   8.22141e-28
      35.6000   5.96685e-28
      35.7000   3.72558e-28
      35.8000   2.20334e-28
      35.9000   1.57113e-28
      36.0000   9.42665e-29
      36.1000   5.78219e-29
      36.2000   4.05438e-29
      36.3000   2.33683e-29
      36.4000   1.48613e-29
      36.5000   1.02610e-29
      36.6000   5.68846e-30
      36.7000   3.74048e-30
      36.8000   2.54863e-30
      36.9000   1.36399e-30
      37.0000   9.22331e-31
      37.1000   6.21885e-31
      37.2000   3.23242e-31
      37.3000   2.22814e-31
      37.4000   1.49153e-31
      37.5000   7.59418e-32
      37.6000   5.27242e-32
      37.7000   3.51743e-32
      37.8000   1.77317e-32
      37.9000   1.22181e-32
      38.0000   8.15576e-33
      38.1000   4.11814e-33
      38.2000   2.77095e-33
      38.3000   1.85796e-33
      38.4000   9.50555e-34
      38.5000   6.14407e-34
      38.6000   4.15390e-34
      38.7000   2.17594e-34
      38.8000   1.33095e-34
      38.9000   9.10308e-35
      39.0000   4.92241e-35
      39.1000   2.81360e-35
      39.2000   1.95207e-35
      39.3000   1.09584e-35
      39.4000   5.79693e-36
      39.5000   4.08813e-36
      39.6000   2.38997e-36
      39.7000   1.16247e-36
      39.8000   8.34493e-37
      39.9000   5.08541e-37
      40.0000   2.26581e-37
      40.1000   1.65697e-37
      40.2000   1.05190e-37
      40.3000   4.50652e-38
      40.4000   3.19414e-38
      40.5000   2.10859e-38
      40.6000   1.02974e-38
      40.7000   5.96652e-39
      40.8000   4.08517e-39
      40.9000   2.21570e-39
      41.0000   1.07780e-39
      41.1000   7.63244e-40
      41.2000   4.50687e-40
      41.3000   1.88036e-40
      41.4000   1.37326e-40
      41.5000   8.69281e-41
      41.6000   3.68471e-41
      41.7000   2.37646e-41
      41.8000   1.59328e-41
      41.9000   8.14715e-42
      42.0000   3.95166e-42
      42.1000   2.78018e-42
      42.2000   1.61289e-42
      42.3000   6.29183e-43
      42.4000   4.59626e-43
      42.5000   2.94273e-43
      42.6000   1.27518e-43
      42.7000   7.28675e-44
      42.8000   4.76441e-44
      42.9000   2.52234e-44
      43.0000   1.26117e-44
      43.1000   9.80909e-45
      43.2000   2.80260e-45
      43.3000       0.00000
      43.4000   2.80260e-45
      43.5000   2.80260e-45
      43.6000   2.80260e-45
      43.7000       0.00000
      43.8000       0.00000
      43.9000       0.00000
      44.0000       0.00000
      44.1000       0.00000
      44.2000       0.00000
      44.3000       0.00000
      44.4000       0.00000
      44.5000       0.00000
      44.6000       0.00000
      44.7000       0.00000
      44.8000       0.00000
      44.9000       0.00000
      45.0000       0.00000
      45.1000       0.00000
      45.2000       0.00000
      45.3000       0.00000
      45.4000       0.00000
      45.5000       0.00000
      45.6000       0.00000
      45.7000       0.00000
      45.8000       0.00000
      45.9000       0.00000
      46.0000       0.00000
      46.1000       0.00000
      46.2000       0.00000
      46.3000       0.00000
      46.4000       0.00000
      46.5000       0.00000
      46.6000       0.00000
      46.7000       0.00000
      46.8000       0.00000
      46.9000       0.00000
      47.0000       0.00000
      47.1000       0.00000
      47.2000       0.00000
      47.3000       0.00000
      47.4000       0.00000
      47.5000       0.00000
      47.6000       0.00000
      47.7000       0.00000
      47.8000       0.00000
      47.9000       0.00000
      48.0000       0.00000
      48.1000       0.00000
      48.2000       0.00000
      48.3000       0.00000
      48.4000       0.00000
      48.5000       0.00000
      48.6000       0.00000
      48.7000       0.00000
      48.8000       0.00000
      48.9000       0.00000
      49.0000       0.00000
      49.1000       0.00000
      49.2000       0.00000
      49.3000       0.00000
      49.4000       0.00000
      49.5000       0.00000
      49.6000       0.00000
      49.7000       0.00000
      49.8000       0.00000
      49.9000       0.00000
      50.0000       0.00000
      50.1000       0.00000
      50.2000       0.00000
      50.3000       0.00000
      50.4000       0.00000
      50.5000       0.00000
      50.6000       0.00000
      50.7000       0.00000
      50.8000       0.00000
      50.9000       0.00000
      51.0000       0.00000
      51.1000       0.00000
      51.2000       0.00000
      51.3000       0.00000
      51.4000       0.00000
      51.5000       0.00000
      51.6000       0.00000
      51.7000       0.00000
      51.8000       0.00000
      51.9000       0.00000
      52.0000       0.00000
      52.1000       0.00000
      52.2000       0.00000
      52.3000       0.00000
      52.4000       0.00000
      52.5000       0.00000
      52.6000       0.00000
      52.7000       0.00000
      52.8000       0.00000
      52.9000       0.00000
      53.0000       0.00000
      53.1000       0.00000
      53.2000       0.00000
      53.3000       0.00000
      53.4000       0.00000
      53.5000       0.00000
      53.6000       0.00000
      53.7000       0.00000
      53.8000       0.00000
      53.9000       0.00000
      54.0000       0.00000
      54.1000       0.00000
      54.2000       0.00000
      54.3000       0.00000
      54.4000       0.00000
      54.5000       0.00000
      54.6000       0.00000
      54.7000       0.00000
      54.8000       0.00000
      54.9000       0.00000
      55.0000       0.00000
      55.1000       0.00000
      55.2000       0.00000
      55.3000       0.00000
      55.4000       0.00000
      55.5000       0.00000
      55.6000       0.00000
      55.7000       0.00000
      55.8000       0.00000
      55.9000       0.00000
      56.0000       0.00000
      56.1000       0.00000
      56.2000       0.00000
      56.3000       0.00000
      56.4000       0.00000
      56.5000       0.00000
      56.6000       0.00000
      56.7000       0.00000
      56.8000       0.00000
      56.9000       0.00000
      57.0000       0.00000
      57.1000       0.00000
      57.2000       0.00000
      57.3000       0.00000
      57.4000       0.00000
      57.5000       0.00000
      57.6000       0.00000
      57.7000       0.00000
      57.8000       0.00000
      57.9000       0.00000
      58.0000       0.00000
      58.1000       0.00000
      58.2000       0.00000
      58.3000       0.00000
      58.4000       0.00000
      58.5000       0.00000
      58.6000       0.00000
      58.7000       0.00000
      58.8000       0.00000
      58.9000       0.00000
      59.0000       0.00000
      59.1000       0.00000
      59.2000       0.00000
      59.3000       0.00000
      59.4000       0.00000
      59.5000       0.00000
      59.6000       0.00000
      59.7000       0.00000
      59.8000       0.00000
      59.9000       0.00000
      60.0000       0.00000
      60.1000       0.00000
      60.2000       0.00000
      60.3000       0.00000
      60.4000       0.00000
      60.5000       0.00000
      60.6000       0.00000
      60.7000       0.00000
      60.8000       0.00000
      60.9000       0.00000
      61.0000       0.00000
      61.1000       0.00000
      61.2000       0.00000
      61.3000       0.00000
      61.4000       0.00000
      61.5000       0.00000
      61.6000       0.00000
      61.7000       0.00000
      61.8000       0.00000
      61.9000       0.00000
      62.0000       0.00000
      62.1000       0.00000
      62.2000       0.00000
      62.3000       0.00000
      62.4000       0.00000
      62.5000       0.00000
      62.6000       0.00000
      62.7000       0.00000
      62.8000       0.00000
      62.9000       0.00000
      63.0000       0.00000
      63.1000       0.00000
      63.2000       0.00000
      63.3000       0.00000
      63.4000       0.00000
      63.5000       0.00000
      63.6000       0.00000
      63.7000       0.00000
      63.8000       0.00000
      63.9000       0.00000
      64.0000       0.00000
      64.1000       0.00000
      64.2000       0.00000
      64.3000       0.00000
      64.4000       0.00000
      64.5000       0.00000
      64.6000       0.00000
      64.7000       0.00000
      64.8000       0.00000
      64.9000       0.00000
      65.0000       0.00000
      65.1000       0.00000
      65.2000       0.00000
      65.3000       0.00000
      65.4000       0.00000
      65.5000       0.00000
      65.6000       0.00000
      65.7000       0.00000
      65.8000       0.00000
      65.9000       0.00000
      66.0000       0.00000
      66.1000       0.00000
      66.2000       0.00000
      66.3000       0.00000
      66.4000       0.00000
      66.5000       0.00000
      66.6000       0.00000
      66.7000       0.00000
      66.8000       0.00000
      66.9000       0.00000
      67.0000       0.00000
      67.1000       0.00000
      67.2000       0.00000
      67.3000       0.00000
      67.4000       0.00000
      67.5000       0.00000
      67.6000       0.00000
      67.7000       0.00000
      67.8000       0.00000
      67.9000       0.00000
      68.0000       0.00000
      68.1000       0.00000
      68.2000       0.00000
      68.3000       0.00000
      68.4000       0.00000
      68.5000       0.00000
      68.6000       0.00000
      68.7000       0.00000
      68.8000       0.00000
      68.9000       0.00000
      69.0000       0.00000
      69.1000       0.00000
      69.2000       0.00000
      69.3000       0.00000
      69.4000       0.00000
      69.5000       0.00000
      69.6000       0.00000
      69.7000       0.00000
      69.8000       0.00000
      69.9000       0.00000
      70.0000       0.00000
      70.1000       0.00000
      70.2000       0.00000
      70.3000       0.00000
      70.4000       0.00000
      70.5000       0.00000
      70.6000       0.00000
      70.7000       0.00000
      70.8000       0.00000
      70.9000       0.00000
      71.0000       0.00000
      71.1000       0.00000
      71.2000       0.00000
      71.3000       0.00000
      71.4000       0.00000
      71.5000       0.00000
      71.6000       0.00000
      71.7000       0.00000
      71.8000       0.00000
      71.9000       0.00000
      72.0000       0.00000
