Filter Al-thick
observation_date 22-Sept-2010 22:40:45
wavelength effective area 
      1.00000   2.52798e-10
      1.10000   6.99238e-10
      1.20000   1.75058e-09
      1.30000   4.00507e-09
      1.40000   8.63403e-09
      1.50000   1.73700e-08
      1.60000   3.29000e-08
      1.70000   5.92555e-08
      1.80000   1.01468e-07
      1.90000   1.66206e-07
      2.00000   2.60879e-07
      2.10000   3.93918e-07
      2.20000   5.74618e-07
      2.30000   8.08571e-07
      2.40000   1.09922e-06
      2.50000   1.43853e-06
      2.60000   1.85795e-06
      2.70000   2.31675e-06
      2.80000   2.80108e-06
      2.90000   3.30715e-06
      3.00000   3.79742e-06
      3.10000   4.24952e-06
      3.20000   4.64174e-06
      3.30000   4.95162e-06
      3.40000   5.15787e-06
      3.50000   5.25031e-06
      3.60000   5.24033e-06
      3.70000   5.10881e-06
      3.80000   4.88531e-06
      3.90000   4.58003e-06
      4.00000   4.20724e-06
      4.10000   3.79099e-06
      4.20000   3.35407e-06
      4.30000   2.91495e-06
      4.40000   2.48937e-06
      4.50000   2.08888e-06
      4.60000   1.72119e-06
      4.70000   1.39732e-06
      4.80000   1.11587e-06
      4.90000   8.66678e-07
      5.00000   6.80348e-07
      5.10000   5.18865e-07
      5.20000   3.91081e-07
      5.30000   2.87779e-07
      5.40000   2.08370e-07
      5.50000   1.49072e-07
      5.60000   1.01734e-07
      5.70000   7.19636e-08
      5.80000   4.51964e-08
      5.90000   3.66010e-08
      6.00000   2.57493e-08
      6.10000   1.69852e-08
      6.20000   1.08033e-08
      6.30000   6.47604e-09
      6.40000   3.65515e-09
      6.50000   1.94914e-09
      6.60000   9.75700e-10
      6.70000   4.70571e-10
      6.80000   2.19868e-10
      6.90000   1.32425e-10
      7.00000   6.61044e-11
      7.10000   3.14863e-11
      7.20000   1.45237e-11
      7.30000   6.60486e-12
      7.40000   3.05825e-12
      7.50000   1.35654e-12
      7.60000   5.74485e-13
      7.70000   2.50822e-13
      7.80000   1.03430e-13
      7.90000   4.16843e-14
      8.00000     0.0719745
      8.10000     0.0720322
      8.20000     0.0667474
      8.30000     0.0614301
      8.40000     0.0564851
      8.50000     0.0517865
      8.60000     0.0473668
      8.70000     0.0431792
      8.80000     0.0392646
      8.90000     0.0355776
      9.00000     0.0321467
      9.10000     0.0289645
      9.20000     0.0260028
      9.30000     0.0233030
      9.40000     0.0208146
      9.50000     0.0185260
      9.60000     0.0164668
      9.70000     0.0145885
      9.80000     0.0128734
      9.90000     0.0113301
      10.0000    0.00994248
      10.1000    0.00869127
      10.2000    0.00756788
      10.3000    0.00657526
      10.4000    0.00570128
      10.5000    0.00492701
      10.6000    0.00424372
      10.7000    0.00364295
      10.8000    0.00311939
      10.9000    0.00266742
      11.0000    0.00227367
      11.1000    0.00193190
      11.2000    0.00163625
      11.3000    0.00138150
      11.4000    0.00116273
      11.5000   0.000975511
      11.6000   0.000815865
      11.7000   0.000681566
      11.8000   0.000567780
      11.9000   0.000472541
      12.0000   0.000392267
      12.1000   0.000326209
      12.2000   0.000275672
      12.3000   0.000229271
      12.4000   0.000188411
      12.5000   0.000154230
      12.6000   0.000125810
      12.7000   0.000102279
      12.8000   8.28821e-05
      12.9000   6.69603e-05
      13.0000   5.39308e-05
      13.1000   4.32984e-05
      13.2000   3.46498e-05
      13.3000   2.76368e-05
      13.4000   2.19691e-05
      13.5000   1.74131e-05
      13.6000   1.38207e-05
      13.7000   1.09356e-05
      13.8000   8.62457e-06
      13.9000   6.77889e-06
      14.0000   5.30902e-06
      14.1000   4.14189e-06
      14.2000   3.21817e-06
      14.3000   2.48979e-06
      14.4000   1.91779e-06
      14.5000   1.47667e-06
      14.6000   1.14021e-06
      14.7000   8.76262e-07
      14.8000   6.69983e-07
      14.9000   5.09458e-07
      15.0000   3.85145e-07
      15.1000   2.89382e-07
      15.2000   2.19456e-07
      15.3000   1.65837e-07
      15.4000   1.24431e-07
      15.5000   9.26719e-08
      15.6000   6.84882e-08
      15.7000   5.08123e-08
      15.8000   3.79317e-08
      15.9000   2.80636e-08
      16.0000   2.05764e-08
      16.1000   1.49520e-08
      16.2000   1.10367e-08
      16.3000   8.12527e-09
      16.4000   5.91078e-09
      16.5000   4.24933e-09
      16.6000   3.07565e-09
      16.7000   2.24525e-09
      16.8000   1.61390e-09
      16.9000   1.14298e-09
      17.0000   8.17780e-10
      17.1000   5.89612e-10
      17.2000   4.17064e-10
      17.3000   2.89859e-10
      17.4000   2.08078e-10
      17.5000   1.48459e-10
      17.6000   1.04134e-10
      17.7000   7.32652e-11
      17.8000   5.32256e-11
      17.9000   3.77875e-11
      18.0000   2.62220e-11
      18.1000   1.89052e-11
      18.2000   1.32871e-11
      18.3000   9.04189e-12
      18.4000   6.28950e-12
      18.5000   4.31318e-12
      18.6000   2.83515e-12
      18.7000   1.89534e-12
      18.8000   1.26445e-12
      18.9000   8.06255e-13
      19.0000   5.33124e-13
      19.1000   3.51528e-13
      19.2000   2.20791e-13
      19.3000   1.46678e-13
      19.4000   9.57176e-14
      19.5000   5.94104e-14
      19.6000   4.01162e-14
      19.7000   2.58561e-14
      19.8000   1.60514e-14
      19.9000   1.09009e-14
      20.0000   6.88060e-15
      20.1000   4.40779e-15
      20.2000   2.89226e-15
      20.3000   1.76584e-15
      20.4000   1.16805e-15
      20.5000   7.34834e-16
      20.6000   4.48095e-16
      20.7000   2.95555e-16
      20.8000   1.77267e-16
      20.9000   1.14197e-16
      21.0000   7.07627e-17
      21.1000   4.20109e-17
      21.2000   2.73813e-17
      21.3000   1.59275e-17
      21.4000   1.02270e-17
      21.5000   6.13174e-18
      21.6000   3.66459e-18
      21.7000   2.29703e-18
      21.8000   1.27569e-18
      21.9000   8.37782e-19
      22.0000   4.76905e-19
      22.1000   2.96621e-19
      22.2000   1.73860e-19
      22.3000   1.01030e-19
      22.4000   6.11125e-20
      22.5000   3.17049e-20
      22.6000   1.92409e-20
      22.7000   8.96592e-21
      22.8000   6.69954e-21
      22.9000   4.90053e-21
      23.0000   3.80132e-21
      23.1000   2.75146e-21
      23.2000   1.75196e-21
      23.3000   1.10178e-21
      23.4000   6.26185e-22
      23.5000   3.88400e-22
      23.6000   2.08666e-22
      23.7000   1.33783e-22
      23.8000   6.88138e-23
      23.9000   4.49621e-23
      24.0000   2.31687e-23
      24.1000   1.48267e-23
      24.2000   7.63681e-24
      24.3000   4.80051e-24
      24.4000   2.47665e-24
      24.5000   1.53448e-24
      24.6000   7.93096e-25
      24.7000   4.85523e-25
      24.8000   2.50640e-25
      24.9000   1.52662e-25
      25.0000   7.88719e-26
      25.1000   4.77983e-26
      25.2000   2.44588e-26
      25.3000   1.48397e-26
      25.4000   7.51400e-27
      25.5000   4.57121e-27
      25.6000   2.26943e-27
      25.7000   1.39054e-27
      25.8000   6.74279e-28
      25.9000   4.17457e-28
      26.0000   1.96625e-28
      26.1000   1.23415e-28
      26.2000   5.62375e-29
      26.3000   3.58791e-29
      26.4000   1.57560e-29
      26.5000   1.02385e-29
      26.6000   4.74442e-30
      26.7000   2.86258e-30
      26.8000   1.41312e-30
      26.9000   7.83273e-31
      27.0000   4.10925e-31
      27.1000   2.09392e-31
      27.2000   1.16271e-31
      27.3000   5.45995e-32
      27.4000   3.20573e-32
      27.5000   1.40100e-32
      27.6000   8.61355e-33
      27.7000   3.47264e-33
      27.8000   2.22877e-33
      27.9000   9.90046e-34
      28.0000   5.56827e-34
      28.1000   2.81237e-34
      28.2000   1.35407e-34
      28.3000   7.60924e-35
      28.4000   3.28395e-35
      28.5000   1.99337e-35
      28.6000   7.78794e-36
      28.7000   5.08658e-36
      28.8000   2.39651e-36
      28.9000   1.32586e-36
      29.0000   7.18045e-37
      29.1000   3.32765e-37
      29.2000   1.99136e-37
      29.3000   8.05211e-38
      29.4000   5.19382e-38
      29.5000   2.34768e-38
      29.6000   1.28507e-38
      29.7000   6.93351e-39
      29.8000   3.03266e-39
      29.9000   1.83737e-39
      30.0000   6.84949e-40
      30.1000   4.50467e-40
      30.2000   2.16963e-40
      30.3000   1.04153e-40
      30.4000   6.03721e-41
      30.5000   2.41248e-41
      30.6000   1.53736e-41
      30.7000   6.66458e-42
      30.8000   3.44439e-42
      30.9000   1.88755e-42
      31.0000   7.31478e-43
      31.1000   4.56823e-43
      31.2000   1.84971e-43
      31.3000   1.02295e-43
      31.4000   4.76441e-44
      31.5000   2.24208e-44
      31.6000   1.26117e-44
      31.7000   2.80260e-45
      31.8000   2.80260e-45
      31.9000   2.80260e-45
      32.0000       0.00000
      32.1000       0.00000
      32.2000       0.00000
      32.3000       0.00000
      32.4000       0.00000
      32.5000       0.00000
      32.6000       0.00000
      32.7000       0.00000
      32.8000       0.00000
      32.9000       0.00000
      33.0000       0.00000
      33.1000       0.00000
      33.2000       0.00000
      33.3000       0.00000
      33.4000       0.00000
      33.5000       0.00000
      33.6000       0.00000
      33.7000       0.00000
      33.8000       0.00000
      33.9000       0.00000
      34.0000       0.00000
      34.1000       0.00000
      34.2000       0.00000
      34.3000       0.00000
      34.4000       0.00000
      34.5000       0.00000
      34.6000       0.00000
      34.7000       0.00000
      34.8000       0.00000
      34.9000       0.00000
      35.0000       0.00000
      35.1000       0.00000
      35.2000       0.00000
      35.3000       0.00000
      35.4000       0.00000
      35.5000       0.00000
      35.6000       0.00000
      35.7000       0.00000
      35.8000       0.00000
      35.9000       0.00000
      36.0000       0.00000
      36.1000       0.00000
      36.2000       0.00000
      36.3000       0.00000
      36.4000       0.00000
      36.5000       0.00000
      36.6000       0.00000
      36.7000       0.00000
      36.8000       0.00000
      36.9000       0.00000
      37.0000       0.00000
      37.1000       0.00000
      37.2000       0.00000
      37.3000       0.00000
      37.4000       0.00000
      37.5000       0.00000
      37.6000       0.00000
      37.7000       0.00000
      37.8000       0.00000
      37.9000       0.00000
      38.0000       0.00000
      38.1000       0.00000
      38.2000       0.00000
      38.3000       0.00000
      38.4000       0.00000
      38.5000       0.00000
      38.6000       0.00000
      38.7000       0.00000
      38.8000       0.00000
      38.9000       0.00000
      39.0000       0.00000
      39.1000       0.00000
      39.2000       0.00000
      39.3000       0.00000
      39.4000       0.00000
      39.5000       0.00000
      39.6000       0.00000
      39.7000       0.00000
      39.8000       0.00000
      39.9000       0.00000
      40.0000       0.00000
      40.1000       0.00000
      40.2000       0.00000
      40.3000       0.00000
      40.4000       0.00000
      40.5000       0.00000
      40.6000       0.00000
      40.7000       0.00000
      40.8000       0.00000
      40.9000       0.00000
      41.0000       0.00000
      41.1000       0.00000
      41.2000       0.00000
      41.3000       0.00000
      41.4000       0.00000
      41.5000       0.00000
      41.6000       0.00000
      41.7000       0.00000
      41.8000       0.00000
      41.9000       0.00000
      42.0000       0.00000
      42.1000       0.00000
      42.2000       0.00000
      42.3000       0.00000
      42.4000       0.00000
      42.5000       0.00000
      42.6000       0.00000
      42.7000       0.00000
      42.8000       0.00000
      42.9000       0.00000
      43.0000       0.00000
      43.1000       0.00000
      43.2000       0.00000
      43.3000       0.00000
      43.4000       0.00000
      43.5000       0.00000
      43.6000       0.00000
      43.7000       0.00000
      43.8000       0.00000
      43.9000       0.00000
      44.0000       0.00000
      44.1000       0.00000
      44.2000       0.00000
      44.3000       0.00000
      44.4000       0.00000
      44.5000       0.00000
      44.6000       0.00000
      44.7000       0.00000
      44.8000       0.00000
      44.9000       0.00000
      45.0000       0.00000
      45.1000       0.00000
      45.2000       0.00000
      45.3000       0.00000
      45.4000       0.00000
      45.5000       0.00000
      45.6000       0.00000
      45.7000       0.00000
      45.8000       0.00000
      45.9000       0.00000
      46.0000       0.00000
      46.1000       0.00000
      46.2000       0.00000
      46.3000       0.00000
      46.4000       0.00000
      46.5000       0.00000
      46.6000       0.00000
      46.7000       0.00000
      46.8000       0.00000
      46.9000       0.00000
      47.0000       0.00000
      47.1000       0.00000
      47.2000       0.00000
      47.3000       0.00000
      47.4000       0.00000
      47.5000       0.00000
      47.6000       0.00000
      47.7000       0.00000
      47.8000       0.00000
      47.9000       0.00000
      48.0000       0.00000
      48.1000       0.00000
      48.2000       0.00000
      48.3000       0.00000
      48.4000       0.00000
      48.5000       0.00000
      48.6000       0.00000
      48.7000       0.00000
      48.8000       0.00000
      48.9000       0.00000
      49.0000       0.00000
      49.1000       0.00000
      49.2000       0.00000
      49.3000       0.00000
      49.4000       0.00000
      49.5000       0.00000
      49.6000       0.00000
      49.7000       0.00000
      49.8000       0.00000
      49.9000       0.00000
      50.0000       0.00000
      50.1000       0.00000
      50.2000       0.00000
      50.3000       0.00000
      50.4000       0.00000
      50.5000       0.00000
      50.6000       0.00000
      50.7000       0.00000
      50.8000       0.00000
      50.9000       0.00000
      51.0000       0.00000
      51.1000       0.00000
      51.2000       0.00000
      51.3000       0.00000
      51.4000       0.00000
      51.5000       0.00000
      51.6000       0.00000
      51.7000       0.00000
      51.8000       0.00000
      51.9000       0.00000
      52.0000       0.00000
      52.1000       0.00000
      52.2000       0.00000
      52.3000       0.00000
      52.4000       0.00000
      52.5000       0.00000
      52.6000       0.00000
      52.7000       0.00000
      52.8000       0.00000
      52.9000       0.00000
      53.0000       0.00000
      53.1000       0.00000
      53.2000       0.00000
      53.3000       0.00000
      53.4000       0.00000
      53.5000       0.00000
      53.6000       0.00000
      53.7000       0.00000
      53.8000       0.00000
      53.9000       0.00000
      54.0000       0.00000
      54.1000       0.00000
      54.2000       0.00000
      54.3000       0.00000
      54.4000       0.00000
      54.5000       0.00000
      54.6000       0.00000
      54.7000       0.00000
      54.8000       0.00000
      54.9000       0.00000
      55.0000       0.00000
      55.1000       0.00000
      55.2000       0.00000
      55.3000       0.00000
      55.4000       0.00000
      55.5000       0.00000
      55.6000       0.00000
      55.7000       0.00000
      55.8000       0.00000
      55.9000       0.00000
      56.0000       0.00000
      56.1000       0.00000
      56.2000       0.00000
      56.3000       0.00000
      56.4000       0.00000
      56.5000       0.00000
      56.6000       0.00000
      56.7000       0.00000
      56.8000       0.00000
      56.9000       0.00000
      57.0000       0.00000
      57.1000       0.00000
      57.2000       0.00000
      57.3000       0.00000
      57.4000       0.00000
      57.5000       0.00000
      57.6000       0.00000
      57.7000       0.00000
      57.8000       0.00000
      57.9000       0.00000
      58.0000       0.00000
      58.1000       0.00000
      58.2000       0.00000
      58.3000       0.00000
      58.4000       0.00000
      58.5000       0.00000
      58.6000       0.00000
      58.7000       0.00000
      58.8000       0.00000
      58.9000       0.00000
      59.0000       0.00000
      59.1000       0.00000
      59.2000       0.00000
      59.3000       0.00000
      59.4000       0.00000
      59.5000       0.00000
      59.6000       0.00000
      59.7000       0.00000
      59.8000       0.00000
      59.9000       0.00000
      60.0000       0.00000
      60.1000       0.00000
      60.2000       0.00000
      60.3000       0.00000
      60.4000       0.00000
      60.5000       0.00000
      60.6000       0.00000
      60.7000       0.00000
      60.8000       0.00000
      60.9000       0.00000
      61.0000       0.00000
      61.1000       0.00000
      61.2000       0.00000
      61.3000       0.00000
      61.4000       0.00000
      61.5000       0.00000
      61.6000       0.00000
      61.7000       0.00000
      61.8000       0.00000
      61.9000       0.00000
      62.0000       0.00000
      62.1000       0.00000
      62.2000       0.00000
      62.3000       0.00000
      62.4000       0.00000
      62.5000       0.00000
      62.6000       0.00000
      62.7000       0.00000
      62.8000       0.00000
      62.9000       0.00000
      63.0000       0.00000
      63.1000       0.00000
      63.2000       0.00000
      63.3000       0.00000
      63.4000       0.00000
      63.5000       0.00000
      63.6000       0.00000
      63.7000       0.00000
      63.8000       0.00000
      63.9000       0.00000
      64.0000       0.00000
      64.1000       0.00000
      64.2000       0.00000
      64.3000       0.00000
      64.4000       0.00000
      64.5000       0.00000
      64.6000       0.00000
      64.7000       0.00000
      64.8000       0.00000
      64.9000       0.00000
      65.0000       0.00000
      65.1000       0.00000
      65.2000       0.00000
      65.3000       0.00000
      65.4000       0.00000
      65.5000       0.00000
      65.6000       0.00000
      65.7000       0.00000
      65.8000       0.00000
      65.9000       0.00000
      66.0000       0.00000
      66.1000       0.00000
      66.2000       0.00000
      66.3000       0.00000
      66.4000       0.00000
      66.5000       0.00000
      66.6000       0.00000
      66.7000       0.00000
      66.8000       0.00000
      66.9000       0.00000
      67.0000       0.00000
      67.1000       0.00000
      67.2000       0.00000
      67.3000       0.00000
      67.4000       0.00000
      67.5000       0.00000
      67.6000       0.00000
      67.7000       0.00000
      67.8000       0.00000
      67.9000       0.00000
      68.0000       0.00000
      68.1000       0.00000
      68.2000       0.00000
      68.3000       0.00000
      68.4000       0.00000
      68.5000       0.00000
      68.6000       0.00000
      68.7000       0.00000
      68.8000       0.00000
      68.9000       0.00000
      69.0000       0.00000
      69.1000       0.00000
      69.2000       0.00000
      69.3000       0.00000
      69.4000       0.00000
      69.5000       0.00000
      69.6000       0.00000
      69.7000       0.00000
      69.8000       0.00000
      69.9000       0.00000
      70.0000       0.00000
      70.1000       0.00000
      70.2000       0.00000
      70.3000       0.00000
      70.4000       0.00000
      70.5000       0.00000
      70.6000       0.00000
      70.7000       0.00000
      70.8000       0.00000
      70.9000       0.00000
      71.0000       0.00000
      71.1000       0.00000
      71.2000       0.00000
      71.3000       0.00000
      71.4000       0.00000
      71.5000       0.00000
      71.6000       0.00000
      71.7000       0.00000
      71.8000       0.00000
      71.9000       0.00000
      72.0000       0.00000
