Filter Al-thick
observation_date 22-Sept-2006 22:40:45
wavelength effective area 
      1.00000   2.52799e-10
      1.10000   6.99242e-10
      1.20000   1.75060e-09
      1.30000   4.00511e-09
      1.40000   8.63414e-09
      1.50000   1.73702e-08
      1.60000   3.29006e-08
      1.70000   5.92567e-08
      1.80000   1.01470e-07
      1.90000   1.66212e-07
      2.00000   2.60889e-07
      2.10000   3.93934e-07
      2.20000   5.74645e-07
      2.30000   8.08615e-07
      2.40000   1.09929e-06
      2.50000   1.43863e-06
      2.60000   1.85810e-06
      2.70000   2.31696e-06
      2.80000   2.80137e-06
      2.90000   3.30752e-06
      3.00000   3.79789e-06
      3.10000   4.25010e-06
      3.20000   4.64244e-06
      3.30000   4.95245e-06
      3.40000   5.15881e-06
      3.50000   5.25135e-06
      3.60000   5.24146e-06
      3.70000   5.11001e-06
      3.80000   4.88656e-06
      3.90000   4.58129e-06
      4.00000   4.20848e-06
      4.10000   3.79220e-06
      4.20000   3.35522e-06
      4.30000   2.91602e-06
      4.40000   2.49035e-06
      4.50000   2.08976e-06
      4.60000   1.72196e-06
      4.70000   1.39799e-06
      4.80000   1.11644e-06
      4.90000   8.67146e-07
      5.00000   6.80737e-07
      5.10000   5.19179e-07
      5.20000   3.91332e-07
      5.30000   2.87974e-07
      5.40000   2.08519e-07
      5.50000   1.49184e-07
      5.60000   1.01815e-07
      5.70000   7.20240e-08
      5.80000   4.52362e-08
      5.90000   3.66349e-08
      6.00000   2.57744e-08
      6.10000   1.70025e-08
      6.20000   1.08149e-08
      6.30000   6.48331e-09
      6.40000   3.65944e-09
      6.50000   1.95153e-09
      6.60000   9.76951e-10
      6.70000   4.71201e-10
      6.80000   2.20175e-10
      6.90000   1.32618e-10
      7.00000   6.62049e-11
      7.10000   3.15362e-11
      7.20000   1.45477e-11
      7.30000   6.61619e-12
      7.40000   3.06370e-12
      7.50000   1.35906e-12
      7.60000   5.75590e-13
      7.70000   2.51323e-13
      7.80000   1.03645e-13
      7.90000   4.17739e-14
      8.00000     0.0721349
      8.10000     0.0721986
      8.20000     0.0669070
      8.30000     0.0615822
      8.40000     0.0566298
      8.50000     0.0519237
      8.60000     0.0474965
      8.70000     0.0433014
      8.80000     0.0393793
      8.90000     0.0356849
      9.00000     0.0322467
      9.10000     0.0290575
      9.20000     0.0260889
      9.30000     0.0233826
      9.40000     0.0208879
      9.50000     0.0185932
      9.60000     0.0165283
      9.70000     0.0146446
      9.80000     0.0129243
      9.90000     0.0113763
      10.0000    0.00998415
      10.1000    0.00872872
      10.2000    0.00760139
      10.3000    0.00660517
      10.4000    0.00572793
      10.5000    0.00495066
      10.6000    0.00426463
      10.7000    0.00366138
      10.8000    0.00313558
      10.9000    0.00268162
      11.0000    0.00228609
      11.1000    0.00194271
      11.2000    0.00164565
      11.3000    0.00138963
      11.4000    0.00116975
      11.5000   0.000981540
      11.6000   0.000821031
      11.7000   0.000685985
      11.8000   0.000571550
      11.9000   0.000475752
      12.0000   0.000394994
      12.1000   0.000328530
      12.2000   0.000277677
      12.3000   0.000230977
      12.4000   0.000189844
      12.5000   0.000155429
      12.6000   0.000126810
      12.7000   0.000103110
      12.8000   8.35699e-05
      12.9000   6.75280e-05
      13.0000   5.43978e-05
      13.1000   4.36813e-05
      13.2000   3.49627e-05
      13.3000   2.78915e-05
      13.4000   2.21758e-05
      13.5000   1.75802e-05
      13.6000   1.39560e-05
      13.7000   1.10448e-05
      13.8000   8.71237e-06
      13.9000   6.84925e-06
      14.0000   5.36519e-06
      14.1000   4.18656e-06
      14.2000   3.25354e-06
      14.3000   2.51768e-06
      14.4000   1.93968e-06
      14.5000   1.49384e-06
      14.6000   1.15371e-06
      14.7000   8.86833e-07
      14.8000   6.78216e-07
      14.9000   5.15834e-07
      15.0000   3.90053e-07
      15.1000   2.93137e-07
      15.2000   2.22355e-07
      15.3000   1.68067e-07
      15.4000   1.26134e-07
      15.5000   9.39629e-08
      15.6000   6.94591e-08
      15.7000   5.15452e-08
      15.8000   3.84883e-08
      15.9000   2.84825e-08
      16.0000   2.08888e-08
      16.1000   1.51828e-08
      16.2000   1.12100e-08
      16.3000   8.25495e-09
      16.4000   6.00668e-09
      16.5000   4.31941e-09
      16.6000   3.12720e-09
      16.7000   2.28349e-09
      16.8000   1.64183e-09
      16.9000   1.16308e-09
      17.0000   8.32390e-10
      17.1000   6.00313e-10
      17.2000   4.24752e-10
      17.3000   2.95286e-10
      17.4000   2.12034e-10
      17.5000   1.51323e-10
      17.6000   1.06173e-10
      17.7000   7.47195e-11
      17.8000   5.42966e-11
      17.9000   3.85581e-11
      18.0000   2.67639e-11
      18.1000   1.93012e-11
      18.2000   1.35691e-11
      18.3000   9.23639e-12
      18.4000   6.42664e-12
      18.5000   4.40851e-12
      18.6000   2.89868e-12
      18.7000   1.93840e-12
      18.8000   1.29358e-12
      18.9000   8.25084e-13
      19.0000   5.45745e-13
      19.1000   3.59964e-13
      19.2000   2.26161e-13
      19.3000   1.50294e-13
      19.4000   9.81084e-14
      19.5000   6.09139e-14
      19.6000   4.11448e-14
      19.7000   2.65276e-14
      19.8000   1.64737e-14
      19.9000   1.11914e-14
      20.0000   7.06628e-15
      20.1000   4.52824e-15
      20.2000   2.97230e-15
      20.3000   1.81531e-15
      20.4000   1.20118e-15
      20.5000   7.55939e-16
      20.6000   4.61123e-16
      20.7000   3.04254e-16
      20.8000   1.82548e-16
      20.9000   1.17640e-16
      21.0000   7.29227e-17
      21.1000   4.33088e-17
      21.2000   2.82374e-17
      21.3000   1.64314e-17
      21.4000   1.05544e-17
      21.5000   6.33040e-18
      21.6000   3.78471e-18
      21.7000   2.37322e-18
      21.8000   1.31849e-18
      21.9000   8.66225e-19
      22.0000   4.93286e-19
      22.1000   3.06928e-19
      22.2000   1.79971e-19
      22.3000   1.04622e-19
      22.4000   6.33103e-20
      22.5000   3.28581e-20
      22.6000   1.99487e-20
      22.7000   9.27714e-21
      22.8000   6.90082e-21
      22.9000   5.03869e-21
      23.0000   3.90589e-21
      23.1000   2.82775e-21
      23.2000   1.80107e-21
      23.3000   1.13302e-21
      23.4000   6.44131e-22
      23.5000   3.99654e-22
      23.6000   2.14779e-22
      23.7000   1.37744e-22
      23.8000   7.08737e-23
      23.9000   4.63225e-23
      24.0000   2.38773e-23
      24.1000   1.52851e-23
      24.2000   7.87541e-24
      24.3000   4.95209e-24
      24.4000   2.55568e-24
      24.5000   1.58397e-24
      24.6000   8.18941e-25
      24.7000   5.01511e-25
      24.8000   2.58980e-25
      24.9000   1.57795e-25
      25.0000   8.15509e-26
      25.1000   4.94385e-26
      25.2000   2.53068e-26
      25.3000   1.53594e-26
      25.4000   7.77986e-27
      25.5000   4.73458e-27
      25.6000   2.35135e-27
      25.7000   1.44123e-27
      25.8000   6.99103e-28
      25.9000   4.32977e-28
      26.0000   2.04006e-28
      26.1000   1.28093e-28
      26.2000   5.83900e-29
      26.3000   3.72656e-29
      26.4000   1.63707e-29
      26.5000   1.06418e-29
      26.6000   4.93310e-30
      26.7000   2.97750e-30
      26.8000   1.47040e-30
      26.9000   8.15318e-31
      27.0000   4.27895e-31
      27.1000   2.18120e-31
      27.2000   1.21164e-31
      27.3000   5.69183e-32
      27.4000   3.34315e-32
      27.5000   1.46162e-32
      27.6000   8.98964e-33
      27.7000   3.62566e-33
      27.8000   2.32788e-33
      27.9000   1.03447e-33
      28.0000   5.82042e-34
      28.1000   2.94088e-34
      28.2000   1.41650e-34
      28.3000   7.96325e-35
      28.4000   3.43810e-35
      28.5000   2.08778e-35
      28.6000   8.16009e-36
      28.7000   5.33180e-36
      28.8000   2.51307e-36
      28.9000   1.39092e-36
      29.0000   7.53589e-37
      29.1000   3.49382e-37
      29.2000   2.09167e-37
      29.3000   8.46126e-38
      29.4000   5.46003e-38
      29.5000   2.46906e-38
      29.6000   1.35208e-38
      29.7000   7.29818e-39
      29.8000   3.19353e-39
      29.9000   1.93567e-39
      30.0000   7.21908e-40
      30.1000   4.74979e-40
      30.2000   2.28871e-40
      30.3000   1.09916e-40
      30.4000   6.37395e-41
      30.5000   2.54826e-41
      30.6000   1.62467e-41
      30.7000   7.04853e-42
      30.8000   3.64478e-42
      30.9000   1.99965e-42
      31.0000   7.73517e-43
      31.1000   4.86251e-43
      31.2000   1.97583e-43
      31.3000   1.09301e-43
      31.4000   5.04467e-44
      31.5000   2.24208e-44
      31.6000   1.26117e-44
      31.7000   2.80260e-45
      31.8000   2.80260e-45
      31.9000   2.80260e-45
      32.0000       0.00000
      32.1000       0.00000
      32.2000       0.00000
      32.3000       0.00000
      32.4000       0.00000
      32.5000       0.00000
      32.6000       0.00000
      32.7000       0.00000
      32.8000       0.00000
      32.9000       0.00000
      33.0000       0.00000
      33.1000       0.00000
      33.2000       0.00000
      33.3000       0.00000
      33.4000       0.00000
      33.5000       0.00000
      33.6000       0.00000
      33.7000       0.00000
      33.8000       0.00000
      33.9000       0.00000
      34.0000       0.00000
      34.1000       0.00000
      34.2000       0.00000
      34.3000       0.00000
      34.4000       0.00000
      34.5000       0.00000
      34.6000       0.00000
      34.7000       0.00000
      34.8000       0.00000
      34.9000       0.00000
      35.0000       0.00000
      35.1000       0.00000
      35.2000       0.00000
      35.3000       0.00000
      35.4000       0.00000
      35.5000       0.00000
      35.6000       0.00000
      35.7000       0.00000
      35.8000       0.00000
      35.9000       0.00000
      36.0000       0.00000
      36.1000       0.00000
      36.2000       0.00000
      36.3000       0.00000
      36.4000       0.00000
      36.5000       0.00000
      36.6000       0.00000
      36.7000       0.00000
      36.8000       0.00000
      36.9000       0.00000
      37.0000       0.00000
      37.1000       0.00000
      37.2000       0.00000
      37.3000       0.00000
      37.4000       0.00000
      37.5000       0.00000
      37.6000       0.00000
      37.7000       0.00000
      37.8000       0.00000
      37.9000       0.00000
      38.0000       0.00000
      38.1000       0.00000
      38.2000       0.00000
      38.3000       0.00000
      38.4000       0.00000
      38.5000       0.00000
      38.6000       0.00000
      38.7000       0.00000
      38.8000       0.00000
      38.9000       0.00000
      39.0000       0.00000
      39.1000       0.00000
      39.2000       0.00000
      39.3000       0.00000
      39.4000       0.00000
      39.5000       0.00000
      39.6000       0.00000
      39.7000       0.00000
      39.8000       0.00000
      39.9000       0.00000
      40.0000       0.00000
      40.1000       0.00000
      40.2000       0.00000
      40.3000       0.00000
      40.4000       0.00000
      40.5000       0.00000
      40.6000       0.00000
      40.7000       0.00000
      40.8000       0.00000
      40.9000       0.00000
      41.0000       0.00000
      41.1000       0.00000
      41.2000       0.00000
      41.3000       0.00000
      41.4000       0.00000
      41.5000       0.00000
      41.6000       0.00000
      41.7000       0.00000
      41.8000       0.00000
      41.9000       0.00000
      42.0000       0.00000
      42.1000       0.00000
      42.2000       0.00000
      42.3000       0.00000
      42.4000       0.00000
      42.5000       0.00000
      42.6000       0.00000
      42.7000       0.00000
      42.8000       0.00000
      42.9000       0.00000
      43.0000       0.00000
      43.1000       0.00000
      43.2000       0.00000
      43.3000       0.00000
      43.4000       0.00000
      43.5000       0.00000
      43.6000       0.00000
      43.7000       0.00000
      43.8000       0.00000
      43.9000       0.00000
      44.0000       0.00000
      44.1000       0.00000
      44.2000       0.00000
      44.3000       0.00000
      44.4000       0.00000
      44.5000       0.00000
      44.6000       0.00000
      44.7000       0.00000
      44.8000       0.00000
      44.9000       0.00000
      45.0000       0.00000
      45.1000       0.00000
      45.2000       0.00000
      45.3000       0.00000
      45.4000       0.00000
      45.5000       0.00000
      45.6000       0.00000
      45.7000       0.00000
      45.8000       0.00000
      45.9000       0.00000
      46.0000       0.00000
      46.1000       0.00000
      46.2000       0.00000
      46.3000       0.00000
      46.4000       0.00000
      46.5000       0.00000
      46.6000       0.00000
      46.7000       0.00000
      46.8000       0.00000
      46.9000       0.00000
      47.0000       0.00000
      47.1000       0.00000
      47.2000       0.00000
      47.3000       0.00000
      47.4000       0.00000
      47.5000       0.00000
      47.6000       0.00000
      47.7000       0.00000
      47.8000       0.00000
      47.9000       0.00000
      48.0000       0.00000
      48.1000       0.00000
      48.2000       0.00000
      48.3000       0.00000
      48.4000       0.00000
      48.5000       0.00000
      48.6000       0.00000
      48.7000       0.00000
      48.8000       0.00000
      48.9000       0.00000
      49.0000       0.00000
      49.1000       0.00000
      49.2000       0.00000
      49.3000       0.00000
      49.4000       0.00000
      49.5000       0.00000
      49.6000       0.00000
      49.7000       0.00000
      49.8000       0.00000
      49.9000       0.00000
      50.0000       0.00000
      50.1000       0.00000
      50.2000       0.00000
      50.3000       0.00000
      50.4000       0.00000
      50.5000       0.00000
      50.6000       0.00000
      50.7000       0.00000
      50.8000       0.00000
      50.9000       0.00000
      51.0000       0.00000
      51.1000       0.00000
      51.2000       0.00000
      51.3000       0.00000
      51.4000       0.00000
      51.5000       0.00000
      51.6000       0.00000
      51.7000       0.00000
      51.8000       0.00000
      51.9000       0.00000
      52.0000       0.00000
      52.1000       0.00000
      52.2000       0.00000
      52.3000       0.00000
      52.4000       0.00000
      52.5000       0.00000
      52.6000       0.00000
      52.7000       0.00000
      52.8000       0.00000
      52.9000       0.00000
      53.0000       0.00000
      53.1000       0.00000
      53.2000       0.00000
      53.3000       0.00000
      53.4000       0.00000
      53.5000       0.00000
      53.6000       0.00000
      53.7000       0.00000
      53.8000       0.00000
      53.9000       0.00000
      54.0000       0.00000
      54.1000       0.00000
      54.2000       0.00000
      54.3000       0.00000
      54.4000       0.00000
      54.5000       0.00000
      54.6000       0.00000
      54.7000       0.00000
      54.8000       0.00000
      54.9000       0.00000
      55.0000       0.00000
      55.1000       0.00000
      55.2000       0.00000
      55.3000       0.00000
      55.4000       0.00000
      55.5000       0.00000
      55.6000       0.00000
      55.7000       0.00000
      55.8000       0.00000
      55.9000       0.00000
      56.0000       0.00000
      56.1000       0.00000
      56.2000       0.00000
      56.3000       0.00000
      56.4000       0.00000
      56.5000       0.00000
      56.6000       0.00000
      56.7000       0.00000
      56.8000       0.00000
      56.9000       0.00000
      57.0000       0.00000
      57.1000       0.00000
      57.2000       0.00000
      57.3000       0.00000
      57.4000       0.00000
      57.5000       0.00000
      57.6000       0.00000
      57.7000       0.00000
      57.8000       0.00000
      57.9000       0.00000
      58.0000       0.00000
      58.1000       0.00000
      58.2000       0.00000
      58.3000       0.00000
      58.4000       0.00000
      58.5000       0.00000
      58.6000       0.00000
      58.7000       0.00000
      58.8000       0.00000
      58.9000       0.00000
      59.0000       0.00000
      59.1000       0.00000
      59.2000       0.00000
      59.3000       0.00000
      59.4000       0.00000
      59.5000       0.00000
      59.6000       0.00000
      59.7000       0.00000
      59.8000       0.00000
      59.9000       0.00000
      60.0000       0.00000
      60.1000       0.00000
      60.2000       0.00000
      60.3000       0.00000
      60.4000       0.00000
      60.5000       0.00000
      60.6000       0.00000
      60.7000       0.00000
      60.8000       0.00000
      60.9000       0.00000
      61.0000       0.00000
      61.1000       0.00000
      61.2000       0.00000
      61.3000       0.00000
      61.4000       0.00000
      61.5000       0.00000
      61.6000       0.00000
      61.7000       0.00000
      61.8000       0.00000
      61.9000       0.00000
      62.0000       0.00000
      62.1000       0.00000
      62.2000       0.00000
      62.3000       0.00000
      62.4000       0.00000
      62.5000       0.00000
      62.6000       0.00000
      62.7000       0.00000
      62.8000       0.00000
      62.9000       0.00000
      63.0000       0.00000
      63.1000       0.00000
      63.2000       0.00000
      63.3000       0.00000
      63.4000       0.00000
      63.5000       0.00000
      63.6000       0.00000
      63.7000       0.00000
      63.8000       0.00000
      63.9000       0.00000
      64.0000       0.00000
      64.1000       0.00000
      64.2000       0.00000
      64.3000       0.00000
      64.4000       0.00000
      64.5000       0.00000
      64.6000       0.00000
      64.7000       0.00000
      64.8000       0.00000
      64.9000       0.00000
      65.0000       0.00000
      65.1000       0.00000
      65.2000       0.00000
      65.3000       0.00000
      65.4000       0.00000
      65.5000       0.00000
      65.6000       0.00000
      65.7000       0.00000
      65.8000       0.00000
      65.9000       0.00000
      66.0000       0.00000
      66.1000       0.00000
      66.2000       0.00000
      66.3000       0.00000
      66.4000       0.00000
      66.5000       0.00000
      66.6000       0.00000
      66.7000       0.00000
      66.8000       0.00000
      66.9000       0.00000
      67.0000       0.00000
      67.1000       0.00000
      67.2000       0.00000
      67.3000       0.00000
      67.4000       0.00000
      67.5000       0.00000
      67.6000       0.00000
      67.7000       0.00000
      67.8000       0.00000
      67.9000       0.00000
      68.0000       0.00000
      68.1000       0.00000
      68.2000       0.00000
      68.3000       0.00000
      68.4000       0.00000
      68.5000       0.00000
      68.6000       0.00000
      68.7000       0.00000
      68.8000       0.00000
      68.9000       0.00000
      69.0000       0.00000
      69.1000       0.00000
      69.2000       0.00000
      69.3000       0.00000
      69.4000       0.00000
      69.5000       0.00000
      69.6000       0.00000
      69.7000       0.00000
      69.8000       0.00000
      69.9000       0.00000
      70.0000       0.00000
      70.1000       0.00000
      70.2000       0.00000
      70.3000       0.00000
      70.4000       0.00000
      70.5000       0.00000
      70.6000       0.00000
      70.7000       0.00000
      70.8000       0.00000
      70.9000       0.00000
      71.0000       0.00000
      71.1000       0.00000
      71.2000       0.00000
      71.3000       0.00000
      71.4000       0.00000
      71.5000       0.00000
      71.6000       0.00000
      71.7000       0.00000
      71.8000       0.00000
      71.9000       0.00000
      72.0000       0.00000
