Filter Be-thin
observation_date 22-Sept-2013 22:40:45
wavelength effective area 
      1.00000   2.78438e-10
      1.10000   7.94898e-10
      1.20000   2.06654e-09
      1.30000   4.94177e-09
      1.40000   1.12138e-08
      1.50000   2.39248e-08
      1.60000   4.84357e-08
      1.70000   9.40365e-08
      1.80000   1.75080e-07
      1.90000   3.14687e-07
      2.00000   5.47105e-07
      2.10000   9.24125e-07
      2.20000   1.52384e-06
      2.30000   2.44964e-06
      2.40000   3.84586e-06
      2.50000   5.87753e-06
      2.60000   8.96959e-06
      2.70000   1.33725e-05
      2.80000   1.95552e-05
      2.90000   2.83019e-05
      3.00000   4.03209e-05
      3.10000   5.67055e-05
      3.20000   7.88761e-05
      3.30000   0.000108597
      3.40000   0.000147955
      3.50000   0.000199621
      3.60000   0.000268081
      3.70000   0.000356186
      3.80000   0.000471271
      3.90000   0.000620059
      4.00000   0.000810713
      4.10000    0.00105504
      4.20000    0.00136811
      4.30000    0.00176897
      4.40000    0.00228109
      4.50000    0.00293326
      4.60000    0.00375907
      4.70000    0.00481694
      4.80000    0.00616588
      4.90000    0.00779074
      5.00000     0.0101022
      5.10000     0.0129143
      5.20000     0.0165567
      5.30000     0.0210459
      5.40000     0.0267070
      5.50000     0.0339478
      5.60000     0.0418251
      5.70000     0.0542843
      5.80000     0.0635343
      5.90000     0.0968380
      6.00000      0.129935
      6.10000      0.165746
      6.20000      0.203132
      6.30000      0.238617
      6.40000      0.268849
      6.50000      0.290831
      6.60000      0.300348
      6.70000      0.308950
      6.80000      0.308587
      6.90000      0.403779
      7.00000      0.437893
      7.10000      0.461772
      7.20000      0.480286
      7.30000      0.494940
      7.40000      0.505599
      7.50000      0.513610
      7.60000      0.519096
      7.70000      0.520708
      7.80000      0.517486
      7.90000      0.514813
      8.00000      0.741176
      8.10000      0.807663
      8.20000      0.816910
      8.30000      0.822360
      8.40000      0.824366
      8.50000      0.824883
      8.60000      0.823676
      8.70000      0.821323
      8.80000      0.817569
      8.90000      0.812852
      9.00000      0.807126
      9.10000      0.800454
      9.20000      0.793019
      9.30000      0.784757
      9.40000      0.775807
      9.50000      0.766231
      9.60000      0.756004
      9.70000      0.745232
      9.80000      0.734015
      9.90000      0.722393
      10.0000      0.710421
      10.1000      0.698127
      10.2000      0.685543
      10.3000      0.672661
      10.4000      0.659519
      10.5000      0.646149
      10.6000      0.632586
      10.7000      0.618858
      10.8000      0.604991
      10.9000      0.591025
      11.0000      0.576971
      11.1000      0.562868
      11.2000      0.548730
      11.3000      0.534587
      11.4000      0.520442
      11.5000      0.506306
      11.6000      0.492203
      11.7000      0.478113
      11.8000      0.464087
      11.9000      0.450047
      12.0000      0.435562
      12.1000      0.422753
      12.2000      0.417426
      12.3000      0.407719
      12.4000      0.395112
      12.5000      0.382421
      12.6000      0.369815
      12.7000      0.357366
      12.8000      0.345099
      12.9000      0.333022
      13.0000      0.321160
      13.1000      0.309527
      13.2000      0.298150
      13.3000      0.287090
      13.4000      0.276331
      13.5000      0.265859
      13.6000      0.255687
      13.7000      0.245773
      13.8000      0.236112
      13.9000      0.226711
      14.0000      0.217567
      14.1000      0.208659
      14.2000      0.199978
      14.3000      0.191529
      14.4000      0.183315
      14.5000      0.175350
      14.6000      0.167641
      14.7000      0.160162
      14.8000      0.152913
      14.9000      0.145889
      15.0000      0.139090
      15.1000      0.132516
      15.2000      0.126206
      15.3000      0.120121
      15.4000      0.114250
      15.5000      0.108587
      15.6000      0.103134
      15.7000     0.0979057
      15.8000     0.0929093
      15.9000     0.0881052
      16.0000     0.0834872
      16.1000     0.0790512
      16.2000     0.0748373
      16.3000     0.0708071
      16.4000     0.0669382
      16.5000     0.0632253
      16.6000     0.0596905
      16.7000     0.0563344
      16.8000     0.0531171
      16.9000     0.0500342
      17.0000     0.0471109
      17.1000     0.0443571
      17.2000     0.0417332
      17.3000     0.0392335
      17.4000     0.0368916
      17.5000     0.0346693
      17.6000     0.0325611
      17.7000     0.0305954
      17.8000     0.0288137
      17.9000     0.0271139
      18.0000     0.0254838
      18.1000     0.0239634
      18.2000     0.0224933
      18.3000     0.0210664
      18.4000     0.0196951
      18.5000     0.0183817
      18.6000     0.0171107
      18.7000     0.0158941
      18.8000     0.0147561
      18.9000     0.0136724
      19.0000     0.0126677
      19.1000     0.0117309
      19.2000     0.0108400
      19.3000     0.0100215
      19.4000    0.00926438
      19.5000    0.00855114
      19.6000    0.00792191
      19.7000    0.00732746
      19.8000    0.00676405
      19.9000    0.00625564
      20.0000    0.00577068
      20.1000    0.00531967
      20.2000    0.00490558
      20.3000    0.00451062
      20.4000    0.00415289
      20.5000    0.00381682
      20.6000    0.00350016
      20.7000    0.00321570
      20.8000    0.00294392
      20.9000    0.00269701
      21.0000    0.00246756
      21.1000    0.00225152
      21.2000    0.00205868
      21.3000    0.00187415
      21.4000    0.00170891
      21.5000    0.00155432
      21.6000    0.00141045
      21.7000    0.00128128
      21.8000    0.00115751
      21.9000    0.00104862
      22.0000   0.000944531
      22.1000   0.000850948
      22.2000   0.000763657
      22.3000   0.000681884
      22.4000   0.000600020
      22.5000   0.000518476
      22.6000   0.000415998
      22.7000   0.000338950
      22.8000   0.000380153
      22.9000   0.000439400
      23.0000   0.000519362
      23.1000   0.000551876
      23.2000   0.000541014
      23.3000   0.000508055
      23.4000   0.000464248
      23.5000   0.000424785
      23.6000   0.000386527
      23.7000   0.000352449
      23.8000   0.000319031
      23.9000   0.000290389
      24.0000   0.000262421
      24.1000   0.000238152
      24.2000   0.000214775
      24.3000   0.000194474
      24.4000   0.000175127
      24.5000   0.000158201
      24.6000   0.000142230
      24.7000   0.000128234
      24.8000   0.000115114
      24.9000   0.000103589
      25.0000   9.28346e-05
      25.1000   8.34029e-05
      25.2000   7.46134e-05
      25.3000   6.69290e-05
      25.4000   5.97580e-05
      25.5000   5.35356e-05
      25.6000   4.77003e-05
      25.7000   4.26870e-05
      25.8000   3.79452e-05
      25.9000   3.39275e-05
      26.0000   3.00805e-05
      26.1000   2.68761e-05
      26.2000   2.37588e-05
      26.3000   2.12185e-05
      26.4000   1.86980e-05
      26.5000   1.66942e-05
      26.6000   1.47019e-05
      26.7000   1.30877e-05
      26.8000   1.15266e-05
      26.9000   1.02233e-05
      27.0000   9.00522e-06
      27.1000   7.95246e-06
      27.2000   7.00626e-06
      27.3000   6.16912e-06
      27.4000   5.46618e-06
      27.5000   4.80337e-06
      27.6000   4.24731e-06
      27.7000   3.70151e-06
      27.8000   3.27549e-06
      27.9000   2.85196e-06
      28.0000   2.51356e-06
      28.1000   2.19323e-06
      28.2000   1.92046e-06
      28.3000   1.67978e-06
      28.4000   1.46060e-06
      28.5000   1.28098e-06
      28.6000   1.10554e-06
      28.7000   9.72515e-07
      28.8000   8.40286e-07
      28.9000   7.34843e-07
      29.0000   6.37429e-07
      29.1000   5.52334e-07
      29.2000   4.81066e-07
      29.3000   4.12829e-07
      29.4000   3.61075e-07
      29.5000   3.09638e-07
      29.6000   2.69444e-07
      29.7000   2.32370e-07
      29.8000   1.99834e-07
      29.9000   1.73310e-07
      30.0000   1.47244e-07
      30.1000   1.28414e-07
      30.2000   1.09700e-07
      30.3000   9.57255e-08
      30.4000   8.44818e-08
      30.5000   7.35870e-08
      30.6000   6.37932e-08
      30.7000   5.40609e-08
      30.8000   4.66075e-08
      30.9000   3.98668e-08
      31.0000   3.38186e-08
      31.1000   2.92778e-08
      31.2000   2.47658e-08
      31.3000   2.13956e-08
      31.4000   1.82848e-08
      31.5000   1.54983e-08
      31.6000   1.33710e-08
      31.7000   1.12573e-08
      31.8000   9.68417e-09
      31.9000   8.25343e-09
      32.0000   6.95509e-09
      32.1000   6.02162e-09
      32.2000   5.09417e-09
      32.3000   4.37327e-09
      32.4000   3.74545e-09
      32.5000   3.14364e-09
      32.6000   2.72262e-09
      32.7000   2.30430e-09
      32.8000   1.95691e-09
      32.9000   1.67828e-09
      33.0000   1.40146e-09
      33.1000   1.20686e-09
      33.2000   1.02435e-09
      33.3000   8.57271e-10
      33.4000   7.37719e-10
      33.5000   6.18924e-10
      33.6000   5.23788e-10
      33.7000   4.46676e-10
      33.8000   3.70041e-10
      33.9000   3.17185e-10
      34.0000   2.67878e-10
      34.1000   2.21822e-10
      34.2000   1.90399e-10
      34.3000   1.59162e-10
      34.4000   1.32991e-10
      34.5000   1.13268e-10
      34.6000   9.36628e-11
      34.7000   7.90356e-11
      34.8000   6.67557e-11
      34.9000   5.45486e-11
      35.0000   4.65267e-11
      35.1000   3.89778e-11
      35.2000   3.17809e-11
      35.3000   2.71597e-11
      35.4000   2.25661e-11
      35.5000   1.85065e-11
      35.6000   1.57237e-11
      35.7000   1.29576e-11
      35.8000   1.06874e-11
      35.9000   9.02929e-12
      36.0000   7.38110e-12
      36.1000   6.12100e-12
      36.2000   5.14383e-12
      36.3000   4.17255e-12
      36.4000   3.47723e-12
      36.5000   2.90770e-12
      36.6000   2.34166e-12
      36.7000   1.95945e-12
      36.8000   1.63126e-12
      36.9000   1.30509e-12
      37.0000   1.09531e-12
      37.1000   9.08352e-13
      37.2000   7.22533e-13
      37.3000   6.07328e-13
      37.4000   5.02083e-13
      37.5000   3.97486e-13
      37.6000   3.34050e-13
      37.7000   2.75522e-13
      37.8000   2.17357e-13
      37.9000   1.82260e-13
      38.0000   1.50105e-13
      38.1000   1.18148e-13
      38.2000   9.86197e-14
      38.3000   8.11680e-14
      38.4000   6.38243e-14
      38.5000   5.29018e-14
      38.6000   4.35551e-14
      38.7000   3.42665e-14
      38.8000   2.81307e-14
      38.9000   2.31909e-14
      39.0000   1.82817e-14
      39.1000   1.48254e-14
      39.2000   1.22486e-14
      39.3000   9.68774e-15
      39.4000   7.73225e-15
      39.5000   6.39097e-15
      39.6000   5.05815e-15
      39.7000   3.95284e-15
      39.8000   3.27920e-15
      39.9000   2.60978e-15
      40.0000   1.99739e-15
      40.1000   1.66463e-15
      40.2000   1.33397e-15
      40.3000   1.00543e-15
      40.4000   8.36037e-16
      40.5000   6.75098e-16
      40.6000   5.15171e-16
      40.7000   4.15074e-16
      40.8000   3.37903e-16
      40.9000   2.61228e-16
      41.0000   2.03512e-16
      41.1000   1.67105e-16
      41.2000   1.30934e-16
      41.3000   9.84913e-17
      41.4000   8.15958e-17
      41.5000   6.48065e-17
      41.6000   4.81255e-17
      41.7000   3.93074e-17
      41.8000   3.16382e-17
      41.9000   2.40181e-17
      42.0000   1.86629e-17
      42.1000   1.52174e-17
      42.2000   1.17938e-17
      42.3000   8.72481e-18
      42.4000   7.20326e-18
      42.5000   5.69132e-18
      42.6000   4.18917e-18
      42.7000   3.35303e-18
      42.8000   2.69702e-18
      42.9000   2.04515e-18
      43.0000   1.53377e-18
      43.1000   1.25406e-18
      43.2000   9.76157e-19
      43.3000   7.00045e-19
      43.4000   7.00776e-19
      43.5000   7.98930e-19
      43.6000   9.26213e-19
      43.7000   9.69767e-19
      43.8000   8.44890e-19
      43.9000   6.55906e-19
      44.0000   4.67404e-19
      44.1000   3.84687e-19
      44.2000   3.06723e-19
      44.3000   2.28966e-19
      44.4000   1.71205e-19
      44.5000   1.39654e-19
      44.6000   1.08185e-19
      44.7000   7.67973e-20
      44.8000   6.19398e-20
      44.9000   4.94495e-20
      45.0000   3.69911e-20
      45.1000   2.67680e-20
      45.2000   2.19088e-20
      45.3000   1.70625e-20
      45.4000   1.22282e-20
      45.5000   9.42265e-21
      45.6000   7.57533e-21
      45.7000   5.73285e-21
      45.8000   3.93788e-21
      45.9000   3.24818e-21
      46.0000   2.56023e-21
      46.1000   1.87404e-21
      46.2000   1.34823e-21
      46.3000   1.09740e-21
      46.4000   8.47254e-22
      46.5000   5.97723e-22
      46.6000   4.54605e-22
      46.7000   3.64755e-22
      46.8000   2.75137e-22
      46.9000   1.85744e-22
      47.0000   1.50472e-22
      47.1000   1.18952e-22
      47.2000   8.75121e-23
      47.3000   5.97593e-23
      47.4000   4.89026e-23
      47.5000   3.80729e-23
      47.6000   2.72710e-23
      47.7000   1.92449e-23
      47.8000   1.55986e-23
      47.9000   1.19612e-23
      48.0000   8.33325e-24
      48.1000   6.08260e-24
      48.2000   4.88555e-24
      48.3000   3.69146e-24
      48.4000   2.50040e-24
      48.5000   1.88649e-24
      48.6000   1.50266e-24
      48.7000   1.11978e-24
      48.8000   7.37838e-25
      48.9000   5.73972e-25
      49.0000   4.53906e-25
      49.1000   3.34143e-25
      49.2000   2.14673e-25
      49.3000   1.74293e-25
      49.4000   1.40832e-25
      49.5000   1.07454e-25
      49.6000   7.41581e-26
      49.7000   6.67837e-26
      49.8000   6.00658e-26
      49.9000   5.33646e-26
      50.0000   4.66803e-26
      50.1000   4.09439e-26
      50.2000   3.30496e-26
      50.3000   2.67236e-26
      50.4000   2.31184e-26
      50.5000   2.08351e-26
      50.6000   1.86039e-26
      50.7000   1.43798e-26
      50.8000   1.19839e-26
      50.9000   6.56238e-27
      51.0000   4.39696e-27
      51.1000   3.55510e-27
      51.2000   3.56228e-27
      51.3000   3.19065e-27
      51.4000   1.96772e-27
      51.5000   1.18664e-27
      51.6000   8.36919e-28
      51.7000   5.64402e-28
      51.8000   4.26901e-28
      51.9000   3.55255e-28
      52.0000   2.81491e-28
      52.1000   1.94579e-28
      52.2000   1.48867e-28
      52.3000   9.80596e-29
      52.4000   6.39914e-29
      52.5000   5.05699e-29
      52.6000   4.49573e-29
      52.7000   3.83561e-29
      52.8000   2.60731e-29
      52.9000   1.49141e-29
      53.0000   9.97382e-30
      53.1000   6.57687e-30
      53.2000   4.41315e-30
      53.3000   2.92905e-30
      53.4000   1.91937e-30
      53.5000   1.09564e-30
      53.6000   5.53801e-31
      53.7000   3.23540e-31
      53.8000   2.41652e-31
      53.9000   1.65965e-31
      54.0000   1.11596e-31
      54.1000   7.26179e-32
      54.2000   5.14614e-32
      54.3000   3.09985e-32
      54.4000   1.31292e-32
      54.5000   7.16932e-33
      54.6000   5.13577e-33
      54.7000   3.89739e-33
      54.8000   2.73836e-33
      54.9000   1.85670e-33
      55.0000   1.35125e-33
      55.1000   9.77236e-34
      55.2000   7.01447e-34
      55.3000   6.48262e-34
      55.4000   5.77938e-34
      55.5000   4.15236e-34
      55.6000   2.66231e-34
      55.7000   1.91592e-34
      55.8000   1.30834e-34
      55.9000   9.17329e-35
      56.0000   6.71118e-35
      56.1000   4.63822e-35
      56.2000   4.29792e-35
      56.3000   3.50516e-35
      56.4000   2.53882e-35
      56.5000   1.74991e-35
      56.6000   1.20576e-35
      56.7000   8.78570e-36
      56.8000   6.44599e-36
      56.9000   4.56775e-36
      57.0000   3.05027e-36
      57.1000   2.03716e-36
      57.2000   1.40310e-36
      57.3000   9.93235e-37
      57.4000   7.09375e-37
      57.5000   5.03333e-37
      57.6000   3.27321e-37
      57.7000   2.27518e-37
      57.8000   2.06201e-37
      57.9000   1.54405e-37
      58.0000   1.10015e-37
      58.1000   7.25641e-38
      58.2000   4.17718e-38
      58.3000   2.74794e-38
      58.4000   2.07898e-38
      58.5000   1.65775e-38
      58.6000   1.13153e-38
      58.7000   7.64238e-39
      58.8000   5.13034e-39
      58.9000   3.45619e-39
      59.0000   2.51139e-39
      59.1000   1.86367e-39
      59.2000   1.37860e-39
      59.3000   1.01629e-39
      59.4000   7.46445e-40
      59.5000   5.25778e-40
      59.6000   3.47813e-40
      59.7000   2.66360e-40
      59.8000   1.85148e-40
      59.9000   1.10054e-40
      60.0000   8.10497e-41
      60.1000   5.97962e-41
      60.2000   4.39727e-41
      60.3000   3.22271e-41
      60.4000   2.35502e-41
      60.5000   1.73551e-41
      60.6000   1.29018e-41
      60.7000   1.01566e-41
      60.8000   8.38677e-42
      60.9000   6.90700e-42
      61.0000   5.70889e-42
      61.1000   4.72798e-42
      61.2000   3.93625e-42
      61.3000   3.26222e-42
      61.4000   2.70030e-42
      61.5000   2.24628e-42
      61.6000   1.78666e-42
      61.7000   1.40550e-42
      61.8000   1.10282e-42
      61.9000   8.75812e-43
      62.0000   6.71222e-43
      62.1000   4.82047e-43
      62.2000   3.41917e-43
      62.3000   2.49431e-43
      62.4000   2.04590e-43
      62.5000   1.75162e-43
      62.6000   1.52742e-43
      62.7000   1.30321e-43
      62.8000   1.14906e-43
      62.9000   8.26766e-44
      63.0000   5.74532e-44
      63.1000   4.20390e-44
      63.2000   3.50325e-44
      63.3000   2.52234e-44
      63.4000   2.24208e-44
      63.5000   1.54143e-44
      63.6000   1.26117e-44
      63.7000   9.80909e-45
      63.8000   9.80909e-45
      63.9000   7.00649e-45
      64.0000   2.80260e-45
      64.1000   2.80260e-45
      64.2000   2.80260e-45
      64.3000   2.80260e-45
      64.4000       0.00000
      64.5000       0.00000
      64.6000       0.00000
      64.7000       0.00000
      64.8000       0.00000
      64.9000       0.00000
      65.0000       0.00000
      65.1000       0.00000
      65.2000       0.00000
      65.3000       0.00000
      65.4000       0.00000
      65.5000       0.00000
      65.6000       0.00000
      65.7000       0.00000
      65.8000       0.00000
      65.9000       0.00000
      66.0000       0.00000
      66.1000       0.00000
      66.2000       0.00000
      66.3000       0.00000
      66.4000       0.00000
      66.5000       0.00000
      66.6000       0.00000
      66.7000       0.00000
      66.8000       0.00000
      66.9000       0.00000
      67.0000       0.00000
      67.1000       0.00000
      67.2000       0.00000
      67.3000       0.00000
      67.4000       0.00000
      67.5000       0.00000
      67.6000       0.00000
      67.7000       0.00000
      67.8000       0.00000
      67.9000       0.00000
      68.0000       0.00000
      68.1000       0.00000
      68.2000       0.00000
      68.3000       0.00000
      68.4000       0.00000
      68.5000       0.00000
      68.6000       0.00000
      68.7000       0.00000
      68.8000       0.00000
      68.9000       0.00000
      69.0000       0.00000
      69.1000       0.00000
      69.2000       0.00000
      69.3000       0.00000
      69.4000       0.00000
      69.5000       0.00000
      69.6000       0.00000
      69.7000       0.00000
      69.8000       0.00000
      69.9000       0.00000
      70.0000       0.00000
      70.1000       0.00000
      70.2000       0.00000
      70.3000       0.00000
      70.4000       0.00000
      70.5000       0.00000
      70.6000       0.00000
      70.7000       0.00000
      70.8000       0.00000
      70.9000       0.00000
      71.0000       0.00000
      71.1000       0.00000
      71.2000       0.00000
      71.3000       0.00000
      71.4000       0.00000
      71.5000       0.00000
      71.6000       0.00000
      71.7000       0.00000
      71.8000       0.00000
      71.9000       0.00000
      72.0000       0.00000
