Filter Al-med
observation_date 2006-09-22 22:40:45
wavelength effective area
      1.00000   2.66387e-10
      1.10000   7.49534e-10
      1.20000   1.91516e-09
      1.30000   4.48771e-09
      1.40000   9.94664e-09
      1.50000   2.06569e-08
      1.60000   4.05615e-08
      1.70000   7.60835e-08
      1.80000   1.36321e-07
      1.90000   2.34808e-07
      2.00000   3.89537e-07
      2.10000   6.25009e-07
      2.20000   9.74291e-07
      2.30000   1.47349e-06
      2.40000   2.16564e-06
      2.50000   3.08260e-06
      2.60000   4.35803e-06
      2.70000   5.98659e-06
      2.80000   8.02436e-06
      2.90000   1.05789e-05
      3.00000   1.36538e-05
      3.10000   1.72943e-05
      3.20000   2.15353e-05
      3.30000   2.63803e-05
      3.40000   3.17852e-05
      3.50000   3.76996e-05
      3.60000   4.41918e-05
      3.70000   5.09667e-05
      3.80000   5.81190e-05
      3.90000   6.54772e-05
      4.00000   7.28450e-05
      4.10000   8.01306e-05
      4.20000   8.72378e-05
      4.30000   9.40495e-05
      4.40000   0.000100435
      4.50000   0.000106245
      4.60000   0.000111297
      4.70000   0.000115757
      4.80000   0.000119370
      4.90000   0.000120850
      5.00000   0.000124475
      5.10000   0.000125787
      5.20000   0.000126375
      5.30000   0.000125262
      5.40000   0.000122951
      5.50000   0.000120128
      5.60000   0.000113080
      5.70000   0.000111421
      5.80000   9.80037e-05
      5.90000   0.000111838
      6.00000   0.000111723
      6.10000   0.000105464
      6.20000   9.58416e-05
      6.30000   8.28132e-05
      6.40000   6.80626e-05
      6.50000   5.33231e-05
      6.60000   3.95906e-05
      6.70000   2.88464e-05
      6.80000   2.04169e-05
      6.90000   1.87669e-05
      7.00000   1.42413e-05
      7.10000   1.04438e-05
      7.20000   7.51520e-06
      7.30000   5.35970e-06
      7.40000   3.79540e-06
      7.50000   2.64419e-06
      7.60000   1.80977e-06
      7.70000   1.23432e-06
      7.80000   8.23524e-07
      7.90000   5.44211e-07
      8.00000      0.300427
      8.10000      0.316878
      8.20000      0.309871
      8.30000      0.301383
      8.40000      0.292333
      8.50000      0.283000
      8.60000      0.273345
      8.70000      0.263522
      8.80000      0.253504
      8.90000      0.243396
      9.00000      0.233254
      9.10000      0.223123
      9.20000      0.213044
      9.30000      0.203100
      9.40000      0.193285
      9.50000      0.183625
      9.60000      0.174204
      9.70000      0.164991
      9.80000      0.155974
      9.90000      0.147210
      10.0000      0.138701
      10.1000      0.130447
      10.2000      0.122463
      10.3000      0.114804
      10.4000      0.107478
      10.5000      0.100458
      10.6000     0.0937480
      10.7000     0.0873479
      10.8000     0.0812700
      10.9000     0.0755254
      11.0000     0.0700780
      11.1000     0.0649241
      11.2000     0.0600561
      11.3000     0.0554691
      11.4000     0.0511536
      11.5000     0.0471002
      11.6000     0.0433007
      11.7000     0.0397595
      11.8000     0.0364565
      11.9000     0.0334049
      12.0000     0.0305475
      12.1000     0.0280100
      12.2000     0.0261181
      12.3000     0.0240404
      12.4000     0.0219193
      12.5000     0.0199412
      12.6000     0.0181086
      12.7000     0.0164165
      12.8000     0.0148589
      12.9000     0.0134290
      13.0000     0.0121187
      13.1000     0.0109198
      13.2000    0.00982467
      13.3000    0.00882594
      13.4000    0.00791682
      13.5000    0.00709273
      13.6000    0.00635217
      13.7000    0.00568083
      13.8000    0.00507293
      13.9000    0.00452338
      14.0000    0.00402719
      14.1000    0.00357962
      14.2000    0.00317643
      14.3000    0.00281378
      14.4000    0.00248812
      14.5000    0.00219811
      14.6000    0.00194150
      14.7000    0.00171178
      14.8000    0.00150636
      14.9000    0.00132290
      15.0000    0.00115932
      15.1000    0.00101372
      15.2000   0.000887361
      15.3000   0.000775592
      15.4000   0.000676337
      15.5000   0.000588347
      15.6000   0.000510511
      15.7000   0.000442906
      15.8000   0.000384565
      15.9000   0.000333078
      16.0000   0.000287731
      16.1000   0.000247888
      16.2000   0.000214143
      16.3000   0.000184788
      16.4000   0.000158936
      16.5000   0.000136229
      16.6000   0.000116809
      16.7000   0.000100283
      16.8000   8.57478e-05
      16.9000   7.30103e-05
      17.0000   6.22291e-05
      17.1000   5.31010e-05
      17.2000   4.50905e-05
      17.3000   3.81010e-05
      17.4000   3.24208e-05
      17.5000   2.75729e-05
      17.6000   2.33659e-05
      17.7000   1.98115e-05
      17.8000   1.69459e-05
      17.9000   1.44156e-05
      18.0000   1.21846e-05
      18.1000   1.03683e-05
      18.2000   8.76239e-06
      18.3000   7.33626e-06
      18.4000   6.14708e-06
      18.5000   5.12613e-06
      18.6000   4.22337e-06
      18.7000   3.47416e-06
      18.8000   2.85727e-06
      18.9000   2.32340e-06
      19.0000   1.90002e-06
      19.1000   1.55439e-06
      19.2000   1.25665e-06
      19.3000   1.02737e-06
      19.4000   8.37790e-07
      19.5000   6.74751e-07
      19.6000   5.53730e-07
      19.7000   4.50210e-07
      19.8000   3.62214e-07
      19.9000   2.97546e-07
      20.0000   2.40476e-07
      20.1000   1.94413e-07
      20.2000   1.58202e-07
      20.3000   1.26486e-07
      20.4000   1.02712e-07
      20.5000   8.25854e-08
      20.6000   6.57106e-08
      20.7000   5.32440e-08
      20.8000   4.21965e-08
      20.9000   3.38656e-08
      21.0000   2.70002e-08
      21.1000   2.12350e-08
      21.2000   1.70703e-08
      21.3000   1.33597e-08
      21.4000   1.06557e-08
      21.5000   8.38733e-09
      21.6000   6.56105e-09
      21.7000   5.20340e-09
      21.8000   4.00131e-09
      21.9000   3.19165e-09
      22.0000   2.46498e-09
      22.1000   1.93185e-09
      22.2000   1.49683e-09
      22.3000   1.14716e-09
      22.4000   8.81436e-10
      22.5000   6.42900e-10
      22.6000   4.61804e-10
      22.7000   3.10075e-10
      22.8000   2.94272e-10
      22.9000   2.89470e-10
      23.0000   2.93264e-10
      23.1000   2.72723e-10
      23.2000   2.29350e-10
      23.3000   1.86927e-10
      23.4000   1.45047e-10
      23.5000   1.15057e-10
      23.6000   8.80132e-11
      23.7000   6.99236e-11
      23.8000   5.28133e-11
      23.9000   4.19566e-11
      24.0000   3.16577e-11
      24.1000   2.49423e-11
      24.2000   1.87818e-11
      24.3000   1.47004e-11
      24.4000   1.10622e-11
      24.5000   8.61273e-12
      24.6000   6.47781e-12
      24.7000   5.02020e-12
      24.8000   3.77240e-12
      24.9000   2.91874e-12
      25.0000   2.19271e-12
      25.1000   1.69162e-12
      25.2000   1.26671e-12
      25.3000   9.76671e-13
      25.4000   7.28815e-13
      25.5000   5.61377e-13
      25.6000   4.16325e-13
      25.7000   3.20803e-13
      25.8000   2.36183e-13
      25.9000   1.82215e-13
      26.0000   1.32946e-13
      26.1000   1.02809e-13
      26.2000   7.42332e-14
      26.3000   5.75990e-14
      26.4000   4.10990e-14
      26.5000   3.20262e-14
      26.6000   2.29853e-14
      26.7000   1.76630e-14
      26.8000   1.27960e-14
      26.9000   9.65986e-15
      27.0000   7.07166e-15
      27.1000   5.23400e-15
      27.2000   3.87421e-15
      27.3000   2.81033e-15
      27.4000   2.11469e-15
      27.5000   1.50671e-15
      27.6000   1.14466e-15
      27.7000   7.93813e-16
      27.8000   6.10281e-16
      27.9000   4.27365e-16
      28.0000   3.21351e-16
      28.1000   2.30555e-16
      28.2000   1.67826e-16
      28.3000   1.23859e-16
      28.4000   8.76571e-17
      28.5000   6.61097e-17
      28.6000   4.54227e-17
      28.7000   3.52861e-17
      28.8000   2.51837e-17
      28.9000   1.90022e-17
      29.0000   1.39498e-17
      29.1000   1.00974e-17
      29.2000   7.60293e-18
      29.3000   5.29229e-18
      29.4000   4.07646e-18
      29.5000   2.86477e-18
      29.6000   2.14983e-18
      29.7000   1.56707e-18
      29.8000   1.11505e-18
      29.9000   8.38543e-19
      30.0000   5.68737e-19
      30.1000   4.39320e-19
      30.2000   3.10338e-19
      30.3000   2.27564e-19
      30.4000   1.71299e-19
      30.5000   1.20959e-19
      30.6000   9.21227e-20
      30.7000   6.33830e-20
      30.8000   4.68000e-20
      30.9000   3.38985e-20
      31.0000   2.32195e-20
      31.1000   1.75128e-20
      31.2000   1.18252e-20
      31.3000   8.77614e-21
      31.4000   6.29799e-21
      31.5000   4.27813e-21
      31.6000   3.21478e-21
      31.7000   2.15498e-21
      31.8000   1.58342e-21
      31.9000   1.13565e-21
      32.0000   7.55745e-22
      32.1000   5.69517e-22
      32.2000   3.83900e-22
      32.3000   2.74301e-22
      32.4000   1.98368e-22
      32.5000   1.27624e-22
      32.6000   9.70764e-23
      32.7000   6.66289e-23
      32.8000   4.55014e-23
      32.9000   3.34447e-23
      33.0000   2.14282e-23
      33.1000   1.58643e-23
      33.2000   1.11879e-23
      33.3000   7.19747e-24
      33.4000   5.40716e-24
      33.5000   3.62273e-24
      33.6000   2.47038e-24
      33.7000   1.79917e-24
      33.8000   1.13007e-24
      33.9000   8.30977e-25
      34.0000   5.83723e-25
      34.1000   3.63354e-25
      34.2000   2.72409e-25
      34.3000   1.81719e-25
      34.4000   1.16948e-25
      34.5000   8.55050e-26
      34.6000   5.41523e-26
      34.7000   3.66105e-26
      34.8000   2.55058e-26
      34.9000   1.44320e-26
      35.0000   1.03315e-26
      35.1000   6.96073e-27
      35.2000   3.85331e-27
      35.3000   2.85192e-27
      35.4000   1.85329e-27
      35.5000   1.05995e-27
      35.6000   7.70512e-28
      35.7000   4.81863e-28
      35.8000   2.85437e-28
      35.9000   2.03864e-28
      36.0000   1.22515e-28
      36.1000   7.52712e-29
      36.2000   5.28651e-29
      36.3000   3.05199e-29
      36.4000   1.94412e-29
      36.5000   1.34453e-29
      36.6000   7.46611e-30
      36.7000   4.91753e-30
      36.8000   3.35620e-30
      36.9000   1.79919e-30
      37.0000   1.21866e-30
      37.1000   8.23066e-31
      37.2000   4.28533e-31
      37.3000   2.95891e-31
      37.4000   1.98408e-31
      37.5000   1.01192e-31
      37.6000   7.03749e-32
      37.7000   4.70302e-32
      37.8000   2.37491e-32
      37.9000   1.63927e-32
      38.0000   1.09613e-32
      38.1000   5.54436e-33
      38.2000   3.73711e-33
      38.3000   2.51016e-33
      38.4000   1.28648e-33
      38.5000   8.33003e-34
      38.6000   5.64173e-34
      38.7000   2.96055e-34
      38.8000   1.81408e-34
      38.9000   1.24296e-34
      39.0000   6.73319e-35
      39.1000   3.85552e-35
      39.2000   2.67978e-35
      39.3000   1.50706e-35
      39.4000   7.98674e-36
      39.5000   5.64266e-36
      39.6000   3.30477e-36
      39.7000   1.61036e-36
      39.8000   1.15814e-36
      39.9000   7.07067e-37
      40.0000   3.15615e-37
      40.1000   2.31234e-37
      40.2000   1.47068e-37
      40.3000   6.31237e-38
      40.4000   4.48244e-38
      40.5000   2.96459e-38
      40.6000   1.45050e-38
      40.7000   8.42027e-39
      40.8000   5.77610e-39
      40.9000   3.13876e-39
      41.0000   1.52971e-39
      41.1000   1.08534e-39
      41.2000   6.42107e-40
      41.3000   2.68412e-40
      41.4000   1.96403e-40
      41.5000   1.24561e-40
      41.6000   5.29018e-41
      41.7000   3.41861e-41
      41.8000   2.29617e-41
      41.9000   1.17667e-41
      42.0000   5.71870e-42
      42.1000   4.02873e-42
      42.2000   2.34577e-42
      42.3000   9.13647e-43
      42.4000   6.71222e-43
      42.5000   4.31600e-43
      42.6000   1.89175e-43
      42.7000   1.05097e-43
      42.8000   7.00649e-44
      42.9000   3.78351e-44
      43.0000   1.54143e-44
      43.1000   1.26117e-44
      43.2000   7.00649e-45
      43.3000       0.00000
      43.4000   2.80260e-45
      43.5000   2.80260e-45
      43.6000   2.80260e-45
      43.7000       0.00000
      43.8000       0.00000
      43.9000       0.00000
      44.0000       0.00000
      44.1000       0.00000
      44.2000       0.00000
      44.3000       0.00000
      44.4000       0.00000
      44.5000       0.00000
      44.6000       0.00000
      44.7000       0.00000
      44.8000       0.00000
      44.9000       0.00000
      45.0000       0.00000
      45.1000       0.00000
      45.2000       0.00000
      45.3000       0.00000
      45.4000       0.00000
      45.5000       0.00000
      45.6000       0.00000
      45.7000       0.00000
      45.8000       0.00000
      45.9000       0.00000
      46.0000       0.00000
      46.1000       0.00000
      46.2000       0.00000
      46.3000       0.00000
      46.4000       0.00000
      46.5000       0.00000
      46.6000       0.00000
      46.7000       0.00000
      46.8000       0.00000
      46.9000       0.00000
      47.0000       0.00000
      47.1000       0.00000
      47.2000       0.00000
      47.3000       0.00000
      47.4000       0.00000
      47.5000       0.00000
      47.6000       0.00000
      47.7000       0.00000
      47.8000       0.00000
      47.9000       0.00000
      48.0000       0.00000
      48.1000       0.00000
      48.2000       0.00000
      48.3000       0.00000
      48.4000       0.00000
      48.5000       0.00000
      48.6000       0.00000
      48.7000       0.00000
      48.8000       0.00000
      48.9000       0.00000
      49.0000       0.00000
      49.1000       0.00000
      49.2000       0.00000
      49.3000       0.00000
      49.4000       0.00000
      49.5000       0.00000
      49.6000       0.00000
      49.7000       0.00000
      49.8000       0.00000
      49.9000       0.00000
      50.0000       0.00000
      50.1000       0.00000
      50.2000       0.00000
      50.3000       0.00000
      50.4000       0.00000
      50.5000       0.00000
      50.6000       0.00000
      50.7000       0.00000
      50.8000       0.00000
      50.9000       0.00000
      51.0000       0.00000
      51.1000       0.00000
      51.2000       0.00000
      51.3000       0.00000
      51.4000       0.00000
      51.5000       0.00000
      51.6000       0.00000
      51.7000       0.00000
      51.8000       0.00000
      51.9000       0.00000
      52.0000       0.00000
      52.1000       0.00000
      52.2000       0.00000
      52.3000       0.00000
      52.4000       0.00000
      52.5000       0.00000
      52.6000       0.00000
      52.7000       0.00000
      52.8000       0.00000
      52.9000       0.00000
      53.0000       0.00000
      53.1000       0.00000
      53.2000       0.00000
      53.3000       0.00000
      53.4000       0.00000
      53.5000       0.00000
      53.6000       0.00000
      53.7000       0.00000
      53.8000       0.00000
      53.9000       0.00000
      54.0000       0.00000
      54.1000       0.00000
      54.2000       0.00000
      54.3000       0.00000
      54.4000       0.00000
      54.5000       0.00000
      54.6000       0.00000
      54.7000       0.00000
      54.8000       0.00000
      54.9000       0.00000
      55.0000       0.00000
      55.1000       0.00000
      55.2000       0.00000
      55.3000       0.00000
      55.4000       0.00000
      55.5000       0.00000
      55.6000       0.00000
      55.7000       0.00000
      55.8000       0.00000
      55.9000       0.00000
      56.0000       0.00000
      56.1000       0.00000
      56.2000       0.00000
      56.3000       0.00000
      56.4000       0.00000
      56.5000       0.00000
      56.6000       0.00000
      56.7000       0.00000
      56.8000       0.00000
      56.9000       0.00000
      57.0000       0.00000
      57.1000       0.00000
      57.2000       0.00000
      57.3000       0.00000
      57.4000       0.00000
      57.5000       0.00000
      57.6000       0.00000
      57.7000       0.00000
      57.8000       0.00000
      57.9000       0.00000
      58.0000       0.00000
      58.1000       0.00000
      58.2000       0.00000
      58.3000       0.00000
      58.4000       0.00000
      58.5000       0.00000
      58.6000       0.00000
      58.7000       0.00000
      58.8000       0.00000
      58.9000       0.00000
      59.0000       0.00000
      59.1000       0.00000
      59.2000       0.00000
      59.3000       0.00000
      59.4000       0.00000
      59.5000       0.00000
      59.6000       0.00000
      59.7000       0.00000
      59.8000       0.00000
      59.9000       0.00000
      60.0000       0.00000
      60.1000       0.00000
      60.2000       0.00000
      60.3000       0.00000
      60.4000       0.00000
      60.5000       0.00000
      60.6000       0.00000
      60.7000       0.00000
      60.8000       0.00000
      60.9000       0.00000
      61.0000       0.00000
      61.1000       0.00000
      61.2000       0.00000
      61.3000       0.00000
      61.4000       0.00000
      61.5000       0.00000
      61.6000       0.00000
      61.7000       0.00000
      61.8000       0.00000
      61.9000       0.00000
      62.0000       0.00000
      62.1000       0.00000
      62.2000       0.00000
      62.3000       0.00000
      62.4000       0.00000
      62.5000       0.00000
      62.6000       0.00000
      62.7000       0.00000
      62.8000       0.00000
      62.9000       0.00000
      63.0000       0.00000
      63.1000       0.00000
      63.2000       0.00000
      63.3000       0.00000
      63.4000       0.00000
      63.5000       0.00000
      63.6000       0.00000
      63.7000       0.00000
      63.8000       0.00000
      63.9000       0.00000
      64.0000       0.00000
      64.1000       0.00000
      64.2000       0.00000
      64.3000       0.00000
      64.4000       0.00000
      64.5000       0.00000
      64.6000       0.00000
      64.7000       0.00000
      64.8000       0.00000
      64.9000       0.00000
      65.0000       0.00000
      65.1000       0.00000
      65.2000       0.00000
      65.3000       0.00000
      65.4000       0.00000
      65.5000       0.00000
      65.6000       0.00000
      65.7000       0.00000
      65.8000       0.00000
      65.9000       0.00000
      66.0000       0.00000
      66.1000       0.00000
      66.2000       0.00000
      66.3000       0.00000
      66.4000       0.00000
      66.5000       0.00000
      66.6000       0.00000
      66.7000       0.00000
      66.8000       0.00000
      66.9000       0.00000
      67.0000       0.00000
      67.1000       0.00000
      67.2000       0.00000
      67.3000       0.00000
      67.4000       0.00000
      67.5000       0.00000
      67.6000       0.00000
      67.7000       0.00000
      67.8000       0.00000
      67.9000       0.00000
      68.0000       0.00000
      68.1000       0.00000
      68.2000       0.00000
      68.3000       0.00000
      68.4000       0.00000
      68.5000       0.00000
      68.6000       0.00000
      68.7000       0.00000
      68.8000       0.00000
      68.9000       0.00000
      69.0000       0.00000
      69.1000       0.00000
      69.2000       0.00000
      69.3000       0.00000
      69.4000       0.00000
      69.5000       0.00000
      69.6000       0.00000
      69.7000       0.00000
      69.8000       0.00000
      69.9000       0.00000
      70.0000       0.00000
      70.1000       0.00000
      70.2000       0.00000
      70.3000       0.00000
      70.4000       0.00000
      70.5000       0.00000
      70.6000       0.00000
      70.7000       0.00000
      70.8000       0.00000
      70.9000       0.00000
      71.0000       0.00000
      71.1000       0.00000
      71.2000       0.00000
      71.3000       0.00000
      71.4000       0.00000
      71.5000       0.00000
      71.6000       0.00000
      71.7000       0.00000
      71.8000       0.00000
      71.9000       0.00000
      72.0000       0.00000
