Filter Al-med
observation_date 2013-09-22 22:40:45
wavelength effective area
      1.00000   2.66385e-10
      1.10000   7.49525e-10
      1.20000   1.91514e-09
      1.30000   4.48763e-09
      1.40000   9.94642e-09
      1.50000   2.06563e-08
      1.60000   4.05601e-08
      1.70000   7.60803e-08
      1.80000   1.36314e-07
      1.90000   2.34795e-07
      2.00000   3.89510e-07
      2.10000   6.24959e-07
      2.20000   9.74201e-07
      2.30000   1.47333e-06
      2.40000   2.16538e-06
      2.50000   3.08218e-06
      2.60000   4.35736e-06
      2.70000   5.98556e-06
      2.80000   8.02281e-06
      2.90000   1.05766e-05
      3.00000   1.36505e-05
      3.10000   1.72898e-05
      3.20000   2.15291e-05
      3.30000   2.63719e-05
      3.40000   3.17742e-05
      3.50000   3.76853e-05
      3.60000   4.41735e-05
      3.70000   5.09438e-05
      3.80000   5.80907e-05
      3.90000   6.54428e-05
      4.00000   7.28038e-05
      4.10000   8.00817e-05
      4.20000   8.71806e-05
      4.30000   9.39834e-05
      4.40000   0.000100359
      4.50000   0.000106159
      4.60000   0.000111202
      4.70000   0.000115651
      4.80000   0.000119254
      4.90000   0.000120726
      5.00000   0.000124339
      5.10000   0.000125641
      5.20000   0.000126220
      5.30000   0.000125099
      5.40000   0.000122782
      5.50000   0.000119955
      5.60000   0.000112908
      5.70000   0.000111243
      5.80000   9.78382e-05
      5.90000   0.000111640
      6.00000   0.000111514
      6.10000   0.000105258
      6.20000   9.56453e-05
      6.30000   8.26356e-05
      6.40000   6.79098e-05
      6.50000   5.31979e-05
      6.60000   3.94935e-05
      6.70000   2.87725e-05
      6.80000   2.03623e-05
      6.90000   1.87146e-05
      7.00000   1.41999e-05
      7.10000   1.04121e-05
      7.20000   7.49152e-06
      7.30000   5.34213e-06
      7.40000   3.78247e-06
      7.50000   2.63483e-06
      7.60000   1.80311e-06
      7.70000   1.22961e-06
      7.80000   8.20263e-07
      7.90000   5.41977e-07
      8.00000      0.299149
      8.10000      0.315481
      8.20000      0.308457
      8.30000      0.299959
      8.40000      0.290904
      8.50000      0.281569
      8.60000      0.271917
      8.70000      0.262099
      8.80000      0.252091
      8.90000      0.241995
      9.00000      0.231869
      9.10000      0.221756
      9.20000      0.211699
      9.30000      0.201777
      9.40000      0.191988
      9.50000      0.182355
      9.60000      0.172963
      9.70000      0.163782
      9.80000      0.154798
      9.90000      0.146068
      10.0000      0.137594
      10.1000      0.129377
      10.2000      0.121431
      10.3000      0.113810
      10.4000      0.106522
      10.5000     0.0995406
      10.6000     0.0928693
      10.7000     0.0865077
      10.8000     0.0804679
      10.9000     0.0747608
      11.0000     0.0693505
      11.1000     0.0642331
      11.2000     0.0594009
      11.3000     0.0548489
      11.4000     0.0505676
      11.5000     0.0465475
      11.6000     0.0427804
      11.7000     0.0392702
      11.8000     0.0359972
      11.9000     0.0329743
      12.0000     0.0301446
      12.1000     0.0276322
      12.2000     0.0257579
      12.3000     0.0237015
      12.4000     0.0216034
      12.5000     0.0196475
      12.6000     0.0178361
      12.7000     0.0161640
      12.8000     0.0146255
      12.9000     0.0132136
      13.0000     0.0119202
      13.1000     0.0107371
      13.2000    0.00965692
      13.3000    0.00867215
      13.4000    0.00777607
      13.5000    0.00696411
      13.6000    0.00623471
      13.7000    0.00557373
      13.8000    0.00497543
      13.9000    0.00443478
      14.0000    0.00394680
      14.1000    0.00350680
      14.2000    0.00311060
      14.3000    0.00275438
      14.4000    0.00243461
      14.5000    0.00214997
      14.6000    0.00189819
      14.7000    0.00167290
      14.8000    0.00147152
      14.9000    0.00129175
      15.0000    0.00113154
      15.1000   0.000988984
      15.2000   0.000865328
      15.3000   0.000755995
      15.4000   0.000658949
      15.5000   0.000572958
      15.6000   0.000496927
      15.7000   0.000430919
      15.8000   0.000373980
      15.9000   0.000323755
      16.0000   0.000279543
      16.1000   0.000240718
      16.2000   0.000207847
      16.3000   0.000179267
      16.4000   0.000154111
      16.5000   0.000132026
      16.6000   0.000113148
      16.7000   9.70903e-05
      16.8000   8.29747e-05
      16.9000   7.06122e-05
      17.0000   6.01533e-05
      17.1000   5.13023e-05
      17.2000   4.35397e-05
      17.3000   3.67706e-05
      17.4000   3.12719e-05
      17.5000   2.65817e-05
      17.6000   2.25139e-05
      17.7000   1.90793e-05
      17.8000   1.63113e-05
      17.9000   1.38688e-05
      18.0000   1.17163e-05
      18.1000   9.96469e-06
      18.2000   8.41685e-06
      18.3000   7.04314e-06
      18.4000   5.89824e-06
      18.5000   4.91587e-06
      18.6000   4.04782e-06
      18.7000   3.32780e-06
      18.8000   2.73528e-06
      18.9000   2.22289e-06
      19.0000   1.81673e-06
      19.1000   1.48535e-06
      19.2000   1.20011e-06
      19.3000   9.80544e-07
      19.4000   7.99111e-07
      19.5000   6.43202e-07
      19.6000   5.27512e-07
      19.7000   4.28627e-07
      19.8000   3.44634e-07
      19.9000   2.82927e-07
      20.0000   2.28516e-07
      20.1000   1.84626e-07
      20.2000   1.50141e-07
      20.3000   1.19963e-07
      20.4000   9.73525e-08
      20.5000   7.82245e-08
      20.6000   6.21996e-08
      20.7000   5.03655e-08
      20.8000   3.98885e-08
      20.9000   3.19917e-08
      21.0000   2.54888e-08
      21.1000   2.00326e-08
      21.2000   1.60926e-08
      21.3000   1.25857e-08
      21.4000   1.00313e-08
      21.5000   7.89033e-09
      21.6000   6.16788e-09
      21.7000   4.88808e-09
      21.8000   3.75612e-09
      21.9000   2.99388e-09
      22.0000   2.31054e-09
      22.1000   1.80947e-09
      22.2000   1.40097e-09
      22.3000   1.07289e-09
      22.4000   8.23744e-10
      22.5000   6.00364e-10
      22.6000   4.30919e-10
      22.7000   2.90456e-10
      22.8000   2.78050e-10
      22.9000   2.74454e-10
      23.0000   2.78405e-10
      23.1000   2.58800e-10
      23.2000   2.17517e-10
      23.3000   1.77179e-10
      23.4000   1.37403e-10
      23.5000   1.08930e-10
      23.6000   8.32769e-11
      23.7000   6.61214e-11
      23.8000   4.99116e-11
      23.9000   3.96276e-11
      24.0000   2.98823e-11
      24.1000   2.35291e-11
      24.2000   1.77068e-11
      24.3000   1.38504e-11
      24.4000   1.04161e-11
      24.5000   8.10464e-12
      24.6000   6.09181e-12
      24.7000   4.71807e-12
      24.8000   3.54310e-12
      24.9000   2.73958e-12
      25.0000   2.05679e-12
      25.1000   1.58573e-12
      25.2000   1.18664e-12
      25.3000   9.14335e-13
      25.4000   6.81846e-13
      25.5000   5.24851e-13
      25.6000   3.88980e-13
      25.7000   2.99534e-13
      25.8000   2.20377e-13
      25.9000   1.69907e-13
      26.0000   1.23883e-13
      26.1000   9.57356e-14
      26.2000   6.90790e-14
      26.3000   5.35632e-14
      26.4000   3.81931e-14
      26.5000   2.97413e-14
      26.6000   2.13305e-14
      26.7000   1.63799e-14
      26.8000   1.18582e-14
      26.9000   8.94556e-15
      27.0000   6.54409e-15
      27.1000   4.84008e-15
      27.2000   3.58005e-15
      27.3000   2.59507e-15
      27.4000   1.95130e-15
      27.5000   1.38929e-15
      27.6000   1.05467e-15
      27.7000   7.30869e-16
      27.8000   5.61474e-16
      27.9000   3.92893e-16
      28.0000   2.95210e-16
      28.1000   2.11639e-16
      28.2000   1.53940e-16
      28.3000   1.13525e-16
      28.4000   8.02819e-17
      28.5000   6.05008e-17
      28.6000   4.15368e-17
      28.7000   3.22423e-17
      28.8000   2.29934e-17
      28.9000   1.73359e-17
      29.0000   1.27165e-17
      29.1000   9.19736e-18
      29.2000   6.91973e-18
      29.3000   4.81287e-18
      29.4000   3.70419e-18
      29.5000   2.60105e-18
      29.6000   1.95034e-18
      29.7000   1.42049e-18
      29.8000   1.00993e-18
      29.9000   7.58856e-19
      30.0000   5.14263e-19
      30.1000   3.96910e-19
      30.2000   2.80145e-19
      30.3000   2.05251e-19
      30.4000   1.54372e-19
      30.5000   1.08914e-19
      30.6000   8.28781e-20
      30.7000   5.69735e-20
      30.8000   4.20311e-20
      30.9000   3.04179e-20
      31.0000   2.08173e-20
      31.1000   1.56872e-20
      31.2000   1.05831e-20
      31.3000   7.84741e-21
      31.4000   5.62651e-21
      31.5000   3.81860e-21
      31.6000   2.86689e-21
      31.7000   1.92005e-21
      31.8000   1.40952e-21
      31.9000   1.01001e-21
      32.0000   6.71521e-22
      32.1000   5.05582e-22
      32.2000   3.40489e-22
      32.3000   2.43059e-22
      32.4000   1.75611e-22
      32.5000   1.12878e-22
      32.6000   8.57826e-23
      32.7000   5.88241e-23
      32.8000   4.01349e-23
      32.9000   2.94732e-23
      33.0000   1.88664e-23
      33.1000   1.39556e-23
      33.2000   9.83331e-24
      33.3000   6.32056e-24
      33.4000   4.74425e-24
      33.5000   3.17581e-24
      33.6000   2.16373e-24
      33.7000   1.57445e-24
      33.8000   9.88054e-25
      33.9000   7.25900e-25
      34.0000   5.09458e-25
      34.1000   3.16842e-25
      34.2000   2.37326e-25
      34.3000   1.58173e-25
      34.4000   1.01703e-25
      34.5000   7.42916e-26
      34.6000   4.70079e-26
      34.7000   3.17514e-26
      34.8000   2.21004e-26
      34.9000   1.24936e-26
      35.0000   8.93562e-27
      35.1000   6.01470e-27
      35.2000   3.32652e-27
      35.3000   2.45973e-27
      35.4000   1.59694e-27
      35.5000   9.12480e-28
      35.6000   6.62685e-28
      35.7000   4.14040e-28
      35.8000   2.45028e-28
      35.9000   1.74838e-28
      36.0000   1.04971e-28
      36.1000   6.44305e-29
      36.2000   4.52080e-29
      36.3000   2.60742e-29
      36.4000   1.65932e-29
      36.5000   1.14645e-29
      36.6000   6.35998e-30
      36.7000   4.18489e-30
      36.8000   2.85338e-30
      36.9000   1.52813e-30
      37.0000   1.03404e-30
      37.1000   6.97685e-31
      37.2000   3.62892e-31
      37.3000   2.50318e-31
      37.4000   1.67682e-31
      37.5000   8.54351e-32
      37.6000   5.93568e-32
      37.7000   3.96271e-32
      37.8000   1.99904e-32
      37.9000   1.37843e-32
      38.0000   9.20772e-33
      38.1000   4.65261e-33
      38.2000   3.13281e-33
      38.3000   2.10211e-33
      38.4000   1.07623e-33
      38.5000   6.96144e-34
      38.6000   4.70994e-34
      38.7000   2.46900e-34
      38.8000   1.51130e-34
      38.9000   1.03442e-34
      39.0000   5.59761e-35
      39.1000   3.20189e-35
      39.2000   2.22312e-35
      39.3000   1.24891e-35
      39.4000   6.61160e-36
      39.5000   4.66613e-36
      39.6000   2.72991e-36
      39.7000   1.32881e-36
      39.8000   9.54619e-37
      39.9000   5.82184e-37
      40.0000   2.59589e-37
      40.1000   1.89980e-37
      40.2000   1.20697e-37
      40.3000   5.17483e-38
      40.4000   3.67064e-38
      40.5000   2.42500e-38
      40.6000   1.18518e-38
      40.7000   6.87245e-39
      40.8000   4.70910e-39
      40.9000   2.55608e-39
      41.0000   1.24434e-39
      41.1000   8.81874e-40
      41.2000   5.21146e-40
      41.3000   2.17602e-40
      41.4000   1.59045e-40
      41.5000   1.00756e-40
      41.6000   4.27424e-41
      41.7000   2.75888e-41
      41.8000   1.85112e-41
      41.9000   9.47558e-42
      42.0000   4.60046e-42
      42.1000   3.23700e-42
      42.2000   1.88194e-42
      42.3000   7.34280e-43
      42.4000   5.36697e-43
      42.5000   3.44719e-43
      42.6000   1.49939e-43
      42.7000   8.68805e-44
      42.8000   5.74532e-44
      42.9000   2.94273e-44
      43.0000   1.26117e-44
      43.1000   9.80909e-45
      43.2000   7.00649e-45
      43.3000       0.00000
      43.4000   2.80260e-45
      43.5000   2.80260e-45
      43.6000   2.80260e-45
      43.7000       0.00000
      43.8000       0.00000
      43.9000       0.00000
      44.0000       0.00000
      44.1000       0.00000
      44.2000       0.00000
      44.3000       0.00000
      44.4000       0.00000
      44.5000       0.00000
      44.6000       0.00000
      44.7000       0.00000
      44.8000       0.00000
      44.9000       0.00000
      45.0000       0.00000
      45.1000       0.00000
      45.2000       0.00000
      45.3000       0.00000
      45.4000       0.00000
      45.5000       0.00000
      45.6000       0.00000
      45.7000       0.00000
      45.8000       0.00000
      45.9000       0.00000
      46.0000       0.00000
      46.1000       0.00000
      46.2000       0.00000
      46.3000       0.00000
      46.4000       0.00000
      46.5000       0.00000
      46.6000       0.00000
      46.7000       0.00000
      46.8000       0.00000
      46.9000       0.00000
      47.0000       0.00000
      47.1000       0.00000
      47.2000       0.00000
      47.3000       0.00000
      47.4000       0.00000
      47.5000       0.00000
      47.6000       0.00000
      47.7000       0.00000
      47.8000       0.00000
      47.9000       0.00000
      48.0000       0.00000
      48.1000       0.00000
      48.2000       0.00000
      48.3000       0.00000
      48.4000       0.00000
      48.5000       0.00000
      48.6000       0.00000
      48.7000       0.00000
      48.8000       0.00000
      48.9000       0.00000
      49.0000       0.00000
      49.1000       0.00000
      49.2000       0.00000
      49.3000       0.00000
      49.4000       0.00000
      49.5000       0.00000
      49.6000       0.00000
      49.7000       0.00000
      49.8000       0.00000
      49.9000       0.00000
      50.0000       0.00000
      50.1000       0.00000
      50.2000       0.00000
      50.3000       0.00000
      50.4000       0.00000
      50.5000       0.00000
      50.6000       0.00000
      50.7000       0.00000
      50.8000       0.00000
      50.9000       0.00000
      51.0000       0.00000
      51.1000       0.00000
      51.2000       0.00000
      51.3000       0.00000
      51.4000       0.00000
      51.5000       0.00000
      51.6000       0.00000
      51.7000       0.00000
      51.8000       0.00000
      51.9000       0.00000
      52.0000       0.00000
      52.1000       0.00000
      52.2000       0.00000
      52.3000       0.00000
      52.4000       0.00000
      52.5000       0.00000
      52.6000       0.00000
      52.7000       0.00000
      52.8000       0.00000
      52.9000       0.00000
      53.0000       0.00000
      53.1000       0.00000
      53.2000       0.00000
      53.3000       0.00000
      53.4000       0.00000
      53.5000       0.00000
      53.6000       0.00000
      53.7000       0.00000
      53.8000       0.00000
      53.9000       0.00000
      54.0000       0.00000
      54.1000       0.00000
      54.2000       0.00000
      54.3000       0.00000
      54.4000       0.00000
      54.5000       0.00000
      54.6000       0.00000
      54.7000       0.00000
      54.8000       0.00000
      54.9000       0.00000
      55.0000       0.00000
      55.1000       0.00000
      55.2000       0.00000
      55.3000       0.00000
      55.4000       0.00000
      55.5000       0.00000
      55.6000       0.00000
      55.7000       0.00000
      55.8000       0.00000
      55.9000       0.00000
      56.0000       0.00000
      56.1000       0.00000
      56.2000       0.00000
      56.3000       0.00000
      56.4000       0.00000
      56.5000       0.00000
      56.6000       0.00000
      56.7000       0.00000
      56.8000       0.00000
      56.9000       0.00000
      57.0000       0.00000
      57.1000       0.00000
      57.2000       0.00000
      57.3000       0.00000
      57.4000       0.00000
      57.5000       0.00000
      57.6000       0.00000
      57.7000       0.00000
      57.8000       0.00000
      57.9000       0.00000
      58.0000       0.00000
      58.1000       0.00000
      58.2000       0.00000
      58.3000       0.00000
      58.4000       0.00000
      58.5000       0.00000
      58.6000       0.00000
      58.7000       0.00000
      58.8000       0.00000
      58.9000       0.00000
      59.0000       0.00000
      59.1000       0.00000
      59.2000       0.00000
      59.3000       0.00000
      59.4000       0.00000
      59.5000       0.00000
      59.6000       0.00000
      59.7000       0.00000
      59.8000       0.00000
      59.9000       0.00000
      60.0000       0.00000
      60.1000       0.00000
      60.2000       0.00000
      60.3000       0.00000
      60.4000       0.00000
      60.5000       0.00000
      60.6000       0.00000
      60.7000       0.00000
      60.8000       0.00000
      60.9000       0.00000
      61.0000       0.00000
      61.1000       0.00000
      61.2000       0.00000
      61.3000       0.00000
      61.4000       0.00000
      61.5000       0.00000
      61.6000       0.00000
      61.7000       0.00000
      61.8000       0.00000
      61.9000       0.00000
      62.0000       0.00000
      62.1000       0.00000
      62.2000       0.00000
      62.3000       0.00000
      62.4000       0.00000
      62.5000       0.00000
      62.6000       0.00000
      62.7000       0.00000
      62.8000       0.00000
      62.9000       0.00000
      63.0000       0.00000
      63.1000       0.00000
      63.2000       0.00000
      63.3000       0.00000
      63.4000       0.00000
      63.5000       0.00000
      63.6000       0.00000
      63.7000       0.00000
      63.8000       0.00000
      63.9000       0.00000
      64.0000       0.00000
      64.1000       0.00000
      64.2000       0.00000
      64.3000       0.00000
      64.4000       0.00000
      64.5000       0.00000
      64.6000       0.00000
      64.7000       0.00000
      64.8000       0.00000
      64.9000       0.00000
      65.0000       0.00000
      65.1000       0.00000
      65.2000       0.00000
      65.3000       0.00000
      65.4000       0.00000
      65.5000       0.00000
      65.6000       0.00000
      65.7000       0.00000
      65.8000       0.00000
      65.9000       0.00000
      66.0000       0.00000
      66.1000       0.00000
      66.2000       0.00000
      66.3000       0.00000
      66.4000       0.00000
      66.5000       0.00000
      66.6000       0.00000
      66.7000       0.00000
      66.8000       0.00000
      66.9000       0.00000
      67.0000       0.00000
      67.1000       0.00000
      67.2000       0.00000
      67.3000       0.00000
      67.4000       0.00000
      67.5000       0.00000
      67.6000       0.00000
      67.7000       0.00000
      67.8000       0.00000
      67.9000       0.00000
      68.0000       0.00000
      68.1000       0.00000
      68.2000       0.00000
      68.3000       0.00000
      68.4000       0.00000
      68.5000       0.00000
      68.6000       0.00000
      68.7000       0.00000
      68.8000       0.00000
      68.9000       0.00000
      69.0000       0.00000
      69.1000       0.00000
      69.2000       0.00000
      69.3000       0.00000
      69.4000       0.00000
      69.5000       0.00000
      69.6000       0.00000
      69.7000       0.00000
      69.8000       0.00000
      69.9000       0.00000
      70.0000       0.00000
      70.1000       0.00000
      70.2000       0.00000
      70.3000       0.00000
      70.4000       0.00000
      70.5000       0.00000
      70.6000       0.00000
      70.7000       0.00000
      70.8000       0.00000
      70.9000       0.00000
      71.0000       0.00000
      71.1000       0.00000
      71.2000       0.00000
      71.3000       0.00000
      71.4000       0.00000
      71.5000       0.00000
      71.6000       0.00000
      71.7000       0.00000
      71.8000       0.00000
      71.9000       0.00000
      72.0000       0.00000
