Filter Al-med
observation_date 2008-09-22 22:40:45
wavelength effective area
      1.00000   2.66385e-10
      1.10000   7.49527e-10
      1.20000   1.91514e-09
      1.30000   4.48765e-09
      1.40000   9.94645e-09
      1.50000   2.06564e-08
      1.60000   4.05604e-08
      1.70000   7.60809e-08
      1.80000   1.36315e-07
      1.90000   2.34797e-07
      2.00000   3.89515e-07
      2.10000   6.24967e-07
      2.20000   9.74216e-07
      2.30000   1.47336e-06
      2.40000   2.16542e-06
      2.50000   3.08225e-06
      2.60000   4.35748e-06
      2.70000   5.98573e-06
      2.80000   8.02307e-06
      2.90000   1.05770e-05
      3.00000   1.36511e-05
      3.10000   1.72905e-05
      3.20000   2.15301e-05
      3.30000   2.63733e-05
      3.40000   3.17760e-05
      3.50000   3.76877e-05
      3.60000   4.41766e-05
      3.70000   5.09476e-05
      3.80000   5.80955e-05
      3.90000   6.54486e-05
      4.00000   7.28107e-05
      4.10000   8.00899e-05
      4.20000   8.71902e-05
      4.30000   9.39945e-05
      4.40000   0.000100372
      4.50000   0.000106174
      4.60000   0.000111218
      4.70000   0.000115669
      4.80000   0.000119273
      4.90000   0.000120746
      5.00000   0.000124362
      5.10000   0.000125665
      5.20000   0.000126246
      5.30000   0.000125126
      5.40000   0.000122810
      5.50000   0.000119984
      5.60000   0.000112937
      5.70000   0.000111272
      5.80000   9.78659e-05
      5.90000   0.000111673
      6.00000   0.000111549
      6.10000   0.000105292
      6.20000   9.56781e-05
      6.30000   8.26653e-05
      6.40000   6.79354e-05
      6.50000   5.32189e-05
      6.60000   3.95098e-05
      6.70000   2.87849e-05
      6.80000   2.03714e-05
      6.90000   1.87233e-05
      7.00000   1.42068e-05
      7.10000   1.04174e-05
      7.20000   7.49548e-06
      7.30000   5.34507e-06
      7.40000   3.78463e-06
      7.50000   2.63640e-06
      7.60000   1.80423e-06
      7.70000   1.23040e-06
      7.80000   8.20808e-07
      7.90000   5.42350e-07
      8.00000      0.299363
      8.10000      0.315715
      8.20000      0.308693
      8.30000      0.300197
      8.40000      0.291142
      8.50000      0.281809
      8.60000      0.272155
      8.70000      0.262337
      8.80000      0.252327
      8.90000      0.242229
      9.00000      0.232101
      9.10000      0.221985
      9.20000      0.211923
      9.30000      0.201998
      9.40000      0.192204
      9.50000      0.182567
      9.60000      0.173170
      9.70000      0.163984
      9.80000      0.154994
      9.90000      0.146259
      10.0000      0.137779
      10.1000      0.129556
      10.2000      0.121603
      10.3000      0.113976
      10.4000      0.106682
      10.5000     0.0996937
      10.6000     0.0930158
      10.7000     0.0866478
      10.8000     0.0806017
      10.9000     0.0748883
      11.0000     0.0694719
      11.1000     0.0643483
      11.2000     0.0595101
      11.3000     0.0549522
      11.4000     0.0506653
      11.5000     0.0466396
      11.6000     0.0428671
      11.7000     0.0393517
      11.8000     0.0360738
      11.9000     0.0330460
      12.0000     0.0302117
      12.1000     0.0276951
      12.2000     0.0258179
      12.3000     0.0237579
      12.4000     0.0216559
      12.5000     0.0196964
      12.6000     0.0178814
      12.7000     0.0162060
      12.8000     0.0146643
      12.9000     0.0132494
      13.0000     0.0119532
      13.1000     0.0107675
      13.2000    0.00968481
      13.3000    0.00869772
      13.4000    0.00779947
      13.5000    0.00698549
      13.6000    0.00625423
      13.7000    0.00559152
      13.8000    0.00499163
      13.9000    0.00444950
      14.0000    0.00396015
      14.1000    0.00351889
      14.2000    0.00312153
      14.3000    0.00276424
      14.4000    0.00244349
      14.5000    0.00215796
      14.6000    0.00190538
      14.7000    0.00167935
      14.8000    0.00147730
      14.9000    0.00129692
      15.0000    0.00113614
      15.1000   0.000993084
      15.2000   0.000868979
      15.3000   0.000759242
      15.4000   0.000661830
      15.5000   0.000575507
      15.6000   0.000499176
      15.7000   0.000432903
      15.8000   0.000375732
      15.9000   0.000325298
      16.0000   0.000280898
      16.1000   0.000241904
      16.2000   0.000208888
      16.3000   0.000180180
      16.4000   0.000154908
      16.5000   0.000132721
      16.6000   0.000113753
      16.7000   9.76179e-05
      16.8000   8.34328e-05
      16.9000   7.10082e-05
      17.0000   6.04961e-05
      17.1000   5.15993e-05
      17.2000   4.37957e-05
      17.3000   3.69901e-05
      17.4000   3.14614e-05
      17.5000   2.67452e-05
      17.6000   2.26544e-05
      17.7000   1.92000e-05
      17.8000   1.64160e-05
      17.9000   1.39589e-05
      18.0000   1.17935e-05
      18.1000   1.00312e-05
      18.2000   8.47375e-06
      18.3000   7.09140e-06
      18.4000   5.93920e-06
      18.5000   4.95047e-06
      18.6000   4.07670e-06
      18.7000   3.35187e-06
      18.8000   2.75534e-06
      18.9000   2.23941e-06
      19.0000   1.83042e-06
      19.1000   1.49670e-06
      19.2000   1.20940e-06
      19.3000   9.88235e-07
      19.4000   8.05462e-07
      19.5000   6.48381e-07
      19.6000   5.31815e-07
      19.7000   4.32168e-07
      19.8000   3.47518e-07
      19.9000   2.85324e-07
      20.0000   2.30477e-07
      20.1000   1.86230e-07
      20.2000   1.51462e-07
      20.3000   1.21032e-07
      20.4000   9.82303e-08
      20.5000   7.89384e-08
      20.6000   6.27743e-08
      20.7000   5.08365e-08
      20.8000   4.02660e-08
      20.9000   3.22981e-08
      21.0000   2.57359e-08
      21.1000   2.02291e-08
      21.2000   1.62524e-08
      21.3000   1.27122e-08
      21.4000   1.01333e-08
      21.5000   7.97147e-09
      21.6000   6.23205e-09
      21.7000   4.93953e-09
      21.8000   3.79611e-09
      21.9000   3.02613e-09
      22.0000   2.33571e-09
      22.1000   1.82942e-09
      22.2000   1.41658e-09
      22.3000   1.08498e-09
      22.4000   8.33136e-10
      22.5000   6.07286e-10
      22.6000   4.35944e-10
      22.7000   2.93652e-10
      22.8000   2.80702e-10
      22.9000   2.76913e-10
      23.0000   2.80840e-10
      23.1000   2.61081e-10
      23.2000   2.19455e-10
      23.3000   1.78776e-10
      23.4000   1.38654e-10
      23.5000   1.09933e-10
      23.6000   8.40520e-11
      23.7000   6.67435e-11
      23.8000   5.03862e-11
      23.9000   4.00085e-11
      24.0000   3.01725e-11
      24.1000   2.37601e-11
      24.2000   1.78824e-11
      24.3000   1.39893e-11
      24.4000   1.05216e-11
      24.5000   8.18759e-12
      24.6000   6.15481e-12
      24.7000   4.76737e-12
      24.8000   3.58051e-12
      24.9000   2.76880e-12
      25.0000   2.07895e-12
      25.1000   1.60299e-12
      25.2000   1.19969e-12
      25.3000   9.24490e-13
      25.4000   6.89496e-13
      25.5000   5.30798e-13
      25.6000   3.93431e-13
      25.7000   3.02995e-13
      25.8000   2.22948e-13
      25.9000   1.71909e-13
      26.0000   1.25357e-13
      26.1000   9.68853e-14
      26.2000   6.99166e-14
      26.3000   5.42189e-14
      26.4000   3.86650e-14
      26.5000   3.01122e-14
      26.6000   2.15991e-14
      26.7000   1.65881e-14
      26.8000   1.20103e-14
      26.9000   9.06140e-15
      27.0000   6.62962e-15
      27.1000   4.90392e-15
      27.2000   3.62771e-15
      27.3000   2.62994e-15
      27.4000   1.97775e-15
      27.5000   1.40829e-15
      27.6000   1.06923e-15
      27.7000   7.41052e-16
      27.8000   5.69367e-16
      27.9000   3.98466e-16
      28.0000   2.99434e-16
      28.1000   2.14695e-16
      28.2000   1.56183e-16
      28.3000   1.15194e-16
      28.4000   8.14723e-17
      28.5000   6.14059e-17
      28.6000   4.21637e-17
      28.7000   3.27331e-17
      28.8000   2.33464e-17
      28.9000   1.76044e-17
      29.0000   1.29152e-17
      29.1000   9.34229e-18
      29.2000   7.02971e-18
      29.3000   4.89002e-18
      29.4000   3.76408e-18
      29.5000   2.64346e-18
      29.6000   1.98241e-18
      29.7000   1.44404e-18
      29.8000   1.02682e-18
      29.9000   7.71654e-19
      30.0000   5.23009e-19
      30.1000   4.03716e-19
      30.2000   2.84988e-19
      30.3000   2.08829e-19
      30.4000   1.57085e-19
      30.5000   1.10844e-19
      30.6000   8.43589e-20
      30.7000   5.79999e-20
      30.8000   4.27945e-20
      30.9000   3.09749e-20
      31.0000   2.12016e-20
      31.1000   1.59791e-20
      31.2000   1.07816e-20
      31.3000   7.99580e-21
      31.4000   5.73375e-21
      31.5000   3.89196e-21
      31.6000   2.92241e-21
      31.7000   1.95753e-21
      31.8000   1.43725e-21
      31.9000   1.03003e-21
      32.0000   6.84943e-22
      32.1000   5.15766e-22
      32.2000   3.47402e-22
      32.3000   2.48032e-22
      32.4000   1.79231e-22
      32.5000   1.15223e-22
      32.6000   8.75779e-23
      32.7000   6.00643e-23
      32.8000   4.09873e-23
      32.9000   3.01038e-23
      33.0000   1.92730e-23
      33.1000   1.42585e-23
      33.2000   1.00482e-23
      33.3000   6.45960e-24
      33.4000   4.84932e-24
      33.5000   3.24662e-24
      33.6000   2.21230e-24
      33.7000   1.61003e-24
      33.8000   1.01053e-24
      33.9000   7.42522e-25
      34.0000   5.21202e-25
      34.1000   3.24195e-25
      34.2000   2.42870e-25
      34.3000   1.61893e-25
      34.4000   1.04110e-25
      34.5000   7.60614e-26
      34.6000   4.81351e-26
      34.7000   3.25177e-26
      34.8000   2.26373e-26
      34.9000   1.27991e-26
      35.0000   9.15551e-27
      35.1000   6.16366e-27
      35.2000   3.40944e-27
      35.3000   2.52144e-27
      35.4000   1.63726e-27
      35.5000   9.35665e-28
      35.6000   6.79629e-28
      35.7000   4.24694e-28
      35.8000   2.51373e-28
      35.9000   1.79393e-28
      36.0000   1.07723e-28
      36.1000   6.61305e-29
      36.2000   4.64082e-29
      36.3000   2.67708e-29
      36.4000   1.70393e-29
      36.5000   1.17747e-29
      36.6000   6.53310e-30
      36.7000   4.29950e-30
      36.8000   2.93201e-30
      36.9000   1.57050e-30
      37.0000   1.06288e-30
      37.1000   7.17266e-31
      37.2000   3.73139e-31
      37.3000   2.57429e-31
      37.4000   1.72474e-31
      37.5000   8.78914e-32
      37.6000   6.10737e-32
      37.7000   4.07801e-32
      37.8000   2.05756e-32
      37.9000   1.41902e-32
      38.0000   9.48052e-33
      38.1000   4.79127e-33
      38.2000   3.22674e-33
      38.3000   2.16551e-33
      38.4000   1.10889e-33
      38.5000   7.17389e-34
      38.6000   4.85451e-34
      38.7000   2.54523e-34
      38.8000   1.55823e-34
      38.9000   1.06673e-34
      39.0000   5.77347e-35
      39.1000   3.30306e-35
      39.2000   2.29377e-35
      39.3000   1.28884e-35
      39.4000   6.82417e-36
      39.5000   4.81702e-36
      39.6000   2.81869e-36
      39.7000   1.37227e-36
      39.8000   9.86022e-37
      39.9000   6.01445e-37
      40.0000   2.68226e-37
      40.1000   1.96337e-37
      40.2000   1.24759e-37
      40.3000   5.34995e-38
      40.4000   3.79555e-38
      40.5000   2.50799e-38
      40.6000   1.22596e-38
      40.7000   7.11026e-39
      40.8000   4.87296e-39
      40.9000   2.64552e-39
      41.0000   1.28813e-39
      41.1000   9.13075e-40
      41.2000   5.39686e-40
      41.3000   2.25385e-40
      41.4000   1.64765e-40
      41.5000   1.04398e-40
      41.6000   4.42978e-41
      41.7000   2.85977e-41
      41.8000   1.91922e-41
      41.9000   9.82450e-42
      42.0000   4.77002e-42
      42.1000   3.35751e-42
      42.2000   1.95201e-42
      42.3000   7.60905e-43
      42.4000   5.59118e-43
      42.5000   3.57331e-43
      42.6000   1.56945e-43
      42.7000   8.96831e-44
      42.8000   5.74532e-44
      42.9000   3.22299e-44
      43.0000   1.26117e-44
      43.1000   9.80909e-45
      43.2000   7.00649e-45
      43.3000       0.00000
      43.4000   2.80260e-45
      43.5000   2.80260e-45
      43.6000   2.80260e-45
      43.7000       0.00000
      43.8000       0.00000
      43.9000       0.00000
      44.0000       0.00000
      44.1000       0.00000
      44.2000       0.00000
      44.3000       0.00000
      44.4000       0.00000
      44.5000       0.00000
      44.6000       0.00000
      44.7000       0.00000
      44.8000       0.00000
      44.9000       0.00000
      45.0000       0.00000
      45.1000       0.00000
      45.2000       0.00000
      45.3000       0.00000
      45.4000       0.00000
      45.5000       0.00000
      45.6000       0.00000
      45.7000       0.00000
      45.8000       0.00000
      45.9000       0.00000
      46.0000       0.00000
      46.1000       0.00000
      46.2000       0.00000
      46.3000       0.00000
      46.4000       0.00000
      46.5000       0.00000
      46.6000       0.00000
      46.7000       0.00000
      46.8000       0.00000
      46.9000       0.00000
      47.0000       0.00000
      47.1000       0.00000
      47.2000       0.00000
      47.3000       0.00000
      47.4000       0.00000
      47.5000       0.00000
      47.6000       0.00000
      47.7000       0.00000
      47.8000       0.00000
      47.9000       0.00000
      48.0000       0.00000
      48.1000       0.00000
      48.2000       0.00000
      48.3000       0.00000
      48.4000       0.00000
      48.5000       0.00000
      48.6000       0.00000
      48.7000       0.00000
      48.8000       0.00000
      48.9000       0.00000
      49.0000       0.00000
      49.1000       0.00000
      49.2000       0.00000
      49.3000       0.00000
      49.4000       0.00000
      49.5000       0.00000
      49.6000       0.00000
      49.7000       0.00000
      49.8000       0.00000
      49.9000       0.00000
      50.0000       0.00000
      50.1000       0.00000
      50.2000       0.00000
      50.3000       0.00000
      50.4000       0.00000
      50.5000       0.00000
      50.6000       0.00000
      50.7000       0.00000
      50.8000       0.00000
      50.9000       0.00000
      51.0000       0.00000
      51.1000       0.00000
      51.2000       0.00000
      51.3000       0.00000
      51.4000       0.00000
      51.5000       0.00000
      51.6000       0.00000
      51.7000       0.00000
      51.8000       0.00000
      51.9000       0.00000
      52.0000       0.00000
      52.1000       0.00000
      52.2000       0.00000
      52.3000       0.00000
      52.4000       0.00000
      52.5000       0.00000
      52.6000       0.00000
      52.7000       0.00000
      52.8000       0.00000
      52.9000       0.00000
      53.0000       0.00000
      53.1000       0.00000
      53.2000       0.00000
      53.3000       0.00000
      53.4000       0.00000
      53.5000       0.00000
      53.6000       0.00000
      53.7000       0.00000
      53.8000       0.00000
      53.9000       0.00000
      54.0000       0.00000
      54.1000       0.00000
      54.2000       0.00000
      54.3000       0.00000
      54.4000       0.00000
      54.5000       0.00000
      54.6000       0.00000
      54.7000       0.00000
      54.8000       0.00000
      54.9000       0.00000
      55.0000       0.00000
      55.1000       0.00000
      55.2000       0.00000
      55.3000       0.00000
      55.4000       0.00000
      55.5000       0.00000
      55.6000       0.00000
      55.7000       0.00000
      55.8000       0.00000
      55.9000       0.00000
      56.0000       0.00000
      56.1000       0.00000
      56.2000       0.00000
      56.3000       0.00000
      56.4000       0.00000
      56.5000       0.00000
      56.6000       0.00000
      56.7000       0.00000
      56.8000       0.00000
      56.9000       0.00000
      57.0000       0.00000
      57.1000       0.00000
      57.2000       0.00000
      57.3000       0.00000
      57.4000       0.00000
      57.5000       0.00000
      57.6000       0.00000
      57.7000       0.00000
      57.8000       0.00000
      57.9000       0.00000
      58.0000       0.00000
      58.1000       0.00000
      58.2000       0.00000
      58.3000       0.00000
      58.4000       0.00000
      58.5000       0.00000
      58.6000       0.00000
      58.7000       0.00000
      58.8000       0.00000
      58.9000       0.00000
      59.0000       0.00000
      59.1000       0.00000
      59.2000       0.00000
      59.3000       0.00000
      59.4000       0.00000
      59.5000       0.00000
      59.6000       0.00000
      59.7000       0.00000
      59.8000       0.00000
      59.9000       0.00000
      60.0000       0.00000
      60.1000       0.00000
      60.2000       0.00000
      60.3000       0.00000
      60.4000       0.00000
      60.5000       0.00000
      60.6000       0.00000
      60.7000       0.00000
      60.8000       0.00000
      60.9000       0.00000
      61.0000       0.00000
      61.1000       0.00000
      61.2000       0.00000
      61.3000       0.00000
      61.4000       0.00000
      61.5000       0.00000
      61.6000       0.00000
      61.7000       0.00000
      61.8000       0.00000
      61.9000       0.00000
      62.0000       0.00000
      62.1000       0.00000
      62.2000       0.00000
      62.3000       0.00000
      62.4000       0.00000
      62.5000       0.00000
      62.6000       0.00000
      62.7000       0.00000
      62.8000       0.00000
      62.9000       0.00000
      63.0000       0.00000
      63.1000       0.00000
      63.2000       0.00000
      63.3000       0.00000
      63.4000       0.00000
      63.5000       0.00000
      63.6000       0.00000
      63.7000       0.00000
      63.8000       0.00000
      63.9000       0.00000
      64.0000       0.00000
      64.1000       0.00000
      64.2000       0.00000
      64.3000       0.00000
      64.4000       0.00000
      64.5000       0.00000
      64.6000       0.00000
      64.7000       0.00000
      64.8000       0.00000
      64.9000       0.00000
      65.0000       0.00000
      65.1000       0.00000
      65.2000       0.00000
      65.3000       0.00000
      65.4000       0.00000
      65.5000       0.00000
      65.6000       0.00000
      65.7000       0.00000
      65.8000       0.00000
      65.9000       0.00000
      66.0000       0.00000
      66.1000       0.00000
      66.2000       0.00000
      66.3000       0.00000
      66.4000       0.00000
      66.5000       0.00000
      66.6000       0.00000
      66.7000       0.00000
      66.8000       0.00000
      66.9000       0.00000
      67.0000       0.00000
      67.1000       0.00000
      67.2000       0.00000
      67.3000       0.00000
      67.4000       0.00000
      67.5000       0.00000
      67.6000       0.00000
      67.7000       0.00000
      67.8000       0.00000
      67.9000       0.00000
      68.0000       0.00000
      68.1000       0.00000
      68.2000       0.00000
      68.3000       0.00000
      68.4000       0.00000
      68.5000       0.00000
      68.6000       0.00000
      68.7000       0.00000
      68.8000       0.00000
      68.9000       0.00000
      69.0000       0.00000
      69.1000       0.00000
      69.2000       0.00000
      69.3000       0.00000
      69.4000       0.00000
      69.5000       0.00000
      69.6000       0.00000
      69.7000       0.00000
      69.8000       0.00000
      69.9000       0.00000
      70.0000       0.00000
      70.1000       0.00000
      70.2000       0.00000
      70.3000       0.00000
      70.4000       0.00000
      70.5000       0.00000
      70.6000       0.00000
      70.7000       0.00000
      70.8000       0.00000
      70.9000       0.00000
      71.0000       0.00000
      71.1000       0.00000
      71.2000       0.00000
      71.3000       0.00000
      71.4000       0.00000
      71.5000       0.00000
      71.6000       0.00000
      71.7000       0.00000
      71.8000       0.00000
      71.9000       0.00000
      72.0000       0.00000
