Filter Al-med
observation_date 2015-09-22 22:40:45
wavelength effective area
      1.00000   2.66385e-10
      1.10000   7.49525e-10
      1.20000   1.91513e-09
      1.30000   4.48763e-09
      1.40000   9.94640e-09
      1.50000   2.06563e-08
      1.60000   4.05600e-08
      1.70000   7.60802e-08
      1.80000   1.36314e-07
      1.90000   2.34794e-07
      2.00000   3.89509e-07
      2.10000   6.24956e-07
      2.20000   9.74196e-07
      2.30000   1.47333e-06
      2.40000   2.16536e-06
      2.50000   3.08216e-06
      2.60000   4.35732e-06
      2.70000   5.98550e-06
      2.80000   8.02272e-06
      2.90000   1.05765e-05
      3.00000   1.36503e-05
      3.10000   1.72895e-05
      3.20000   2.15287e-05
      3.30000   2.63714e-05
      3.40000   3.17735e-05
      3.50000   3.76844e-05
      3.60000   4.41725e-05
      3.70000   5.09424e-05
      3.80000   5.80891e-05
      3.90000   6.54408e-05
      4.00000   7.28014e-05
      4.10000   8.00789e-05
      4.20000   8.71773e-05
      4.30000   9.39796e-05
      4.40000   0.000100355
      4.50000   0.000106154
      4.60000   0.000111196
      4.70000   0.000115645
      4.80000   0.000119247
      4.90000   0.000120718
      5.00000   0.000124331
      5.10000   0.000125632
      5.20000   0.000126210
      5.30000   0.000125090
      5.40000   0.000122772
      5.50000   0.000119944
      5.60000   0.000112898
      5.70000   0.000111232
      5.80000   9.78285e-05
      5.90000   0.000111628
      6.00000   0.000111502
      6.10000   0.000105246
      6.20000   9.56338e-05
      6.30000   8.26252e-05
      6.40000   6.79009e-05
      6.50000   5.31906e-05
      6.60000   3.94878e-05
      6.70000   2.87682e-05
      6.80000   2.03591e-05
      6.90000   1.87115e-05
      7.00000   1.41975e-05
      7.10000   1.04103e-05
      7.20000   7.49013e-06
      7.30000   5.34110e-06
      7.40000   3.78171e-06
      7.50000   2.63429e-06
      7.60000   1.80272e-06
      7.70000   1.22933e-06
      7.80000   8.20073e-07
      7.90000   5.41846e-07
      8.00000      0.299074
      8.10000      0.315399
      8.20000      0.308374
      8.30000      0.299876
      8.40000      0.290820
      8.50000      0.281486
      8.60000      0.271833
      8.70000      0.262016
      8.80000      0.252008
      8.90000      0.241914
      9.00000      0.231788
      9.10000      0.221676
      9.20000      0.211620
      9.30000      0.201700
      9.40000      0.191912
      9.50000      0.182281
      9.60000      0.172891
      9.70000      0.163711
      9.80000      0.154729
      9.90000      0.146001
      10.0000      0.137530
      10.1000      0.129315
      10.2000      0.121370
      10.3000      0.113752
      10.4000      0.106466
      10.5000     0.0994872
      10.6000     0.0928181
      10.7000     0.0864587
      10.8000     0.0804212
      10.9000     0.0747163
      11.0000     0.0693082
      11.1000     0.0641928
      11.2000     0.0593628
      11.3000     0.0548128
      11.4000     0.0505335
      11.5000     0.0465154
      11.6000     0.0427501
      11.7000     0.0392418
      11.8000     0.0359705
      11.9000     0.0329493
      12.0000     0.0301212
      12.1000     0.0276102
      12.2000     0.0257370
      12.3000     0.0236818
      12.4000     0.0215850
      12.5000     0.0196304
      12.6000     0.0178202
      12.7000     0.0161494
      12.8000     0.0146120
      12.9000     0.0132010
      13.0000     0.0119086
      13.1000     0.0107265
      13.2000    0.00964719
      13.3000    0.00866323
      13.4000    0.00776791
      13.5000    0.00695666
      13.6000    0.00622791
      13.7000    0.00556752
      13.8000    0.00496978
      13.9000    0.00442965
      14.0000    0.00394214
      14.1000    0.00350258
      14.2000    0.00310679
      14.3000    0.00275094
      14.4000    0.00243152
      14.5000    0.00214718
      14.6000    0.00189569
      14.7000    0.00167065
      14.8000    0.00146951
      14.9000    0.00128995
      15.0000    0.00112993
      15.1000   0.000987555
      15.2000   0.000864055
      15.3000   0.000754863
      15.4000   0.000657945
      15.5000   0.000572069
      15.6000   0.000496143
      15.7000   0.000430227
      15.8000   0.000373369
      15.9000   0.000323218
      16.0000   0.000279071
      16.1000   0.000240304
      16.2000   0.000207484
      16.3000   0.000178949
      16.4000   0.000153833
      16.5000   0.000131784
      16.6000   0.000112937
      16.7000   9.69066e-05
      16.8000   8.28152e-05
      16.9000   7.04743e-05
      17.0000   6.00340e-05
      17.1000   5.11990e-05
      17.2000   4.34506e-05
      17.3000   3.66942e-05
      17.4000   3.12059e-05
      17.5000   2.65248e-05
      17.6000   2.24650e-05
      17.7000   1.90373e-05
      17.8000   1.62749e-05
      17.9000   1.38374e-05
      18.0000   1.16895e-05
      18.1000   9.94155e-06
      18.2000   8.39705e-06
      18.3000   7.02635e-06
      18.4000   5.88399e-06
      18.5000   4.90383e-06
      18.6000   4.03777e-06
      18.7000   3.31942e-06
      18.8000   2.72831e-06
      18.9000   2.21714e-06
      19.0000   1.81196e-06
      19.1000   1.48141e-06
      19.2000   1.19688e-06
      19.3000   9.77869e-07
      19.4000   7.96903e-07
      19.5000   6.41402e-07
      19.6000   5.26017e-07
      19.7000   4.27396e-07
      19.8000   3.43632e-07
      19.9000   2.82093e-07
      20.0000   2.27834e-07
      20.1000   1.84068e-07
      20.2000   1.49682e-07
      20.3000   1.19592e-07
      20.4000   9.70475e-08
      20.5000   7.79764e-08
      20.6000   6.20000e-08
      20.7000   5.02019e-08
      20.8000   3.97574e-08
      20.9000   3.18852e-08
      21.0000   2.54030e-08
      21.1000   1.99643e-08
      21.2000   1.60371e-08
      21.3000   1.25418e-08
      21.4000   9.99593e-09
      21.5000   7.86217e-09
      21.6000   6.14561e-09
      21.7000   4.87023e-09
      21.8000   3.74224e-09
      21.9000   2.98270e-09
      22.0000   2.30181e-09
      22.1000   1.80256e-09
      22.2000   1.39555e-09
      22.3000   1.06869e-09
      22.4000   8.20487e-10
      22.5000   5.97963e-10
      22.6000   4.29177e-10
      22.7000   2.89347e-10
      22.8000   2.77128e-10
      22.9000   2.73599e-10
      23.0000   2.77560e-10
      23.1000   2.58008e-10
      23.2000   2.16843e-10
      23.3000   1.76625e-10
      23.4000   1.36968e-10
      23.5000   1.08581e-10
      23.6000   8.30077e-11
      23.7000   6.59054e-11
      23.8000   4.97468e-11
      23.9000   3.94954e-11
      24.0000   2.97815e-11
      24.1000   2.34489e-11
      24.2000   1.76458e-11
      24.3000   1.38022e-11
      24.4000   1.03795e-11
      24.5000   8.07584e-12
      24.6000   6.06994e-12
      24.7000   4.70096e-12
      24.8000   3.53012e-12
      24.9000   2.72944e-12
      25.0000   2.04910e-12
      25.1000   1.57974e-12
      25.2000   1.18211e-12
      25.3000   9.10812e-13
      25.4000   6.79193e-13
      25.5000   5.22788e-13
      25.6000   3.87436e-13
      25.7000   2.98333e-13
      25.8000   2.19485e-13
      25.9000   1.69213e-13
      26.0000   1.23372e-13
      26.1000   9.53370e-14
      26.2000   6.87887e-14
      26.3000   5.33360e-14
      26.4000   3.80295e-14
      26.5000   2.96127e-14
      26.6000   2.12374e-14
      26.7000   1.63078e-14
      26.8000   1.18054e-14
      26.9000   8.90543e-15
      27.0000   6.51446e-15
      27.1000   4.81796e-15
      27.2000   3.56354e-15
      27.3000   2.58300e-15
      27.4000   1.94213e-15
      27.5000   1.38270e-15
      27.6000   1.04963e-15
      27.7000   7.27343e-16
      27.8000   5.58741e-16
      27.9000   3.90964e-16
      28.0000   2.93747e-16
      28.1000   2.10581e-16
      28.2000   1.53164e-16
      28.3000   1.12948e-16
      28.4000   7.98700e-17
      28.5000   6.01877e-17
      28.6000   4.13200e-17
      28.7000   3.20725e-17
      28.8000   2.28712e-17
      28.9000   1.72430e-17
      29.0000   1.26478e-17
      29.1000   9.14725e-18
      29.2000   6.88170e-18
      29.3000   4.78620e-18
      29.4000   3.68348e-18
      29.5000   2.58638e-18
      29.6000   1.93925e-18
      29.7000   1.41234e-18
      29.8000   1.00409e-18
      29.9000   7.54434e-19
      30.0000   5.11242e-19
      30.1000   3.94559e-19
      30.2000   2.78471e-19
      30.3000   2.04015e-19
      30.4000   1.53434e-19
      30.5000   1.08247e-19
      30.6000   8.23666e-20
      30.7000   5.66191e-20
      30.8000   4.17675e-20
      30.9000   3.02256e-20
      31.0000   2.06846e-20
      31.1000   1.55864e-20
      31.2000   1.05146e-20
      31.3000   7.79620e-21
      31.4000   5.58950e-21
      31.5000   3.79328e-21
      31.6000   2.84773e-21
      31.7000   1.90712e-21
      31.8000   1.39995e-21
      31.9000   1.00310e-21
      32.0000   6.66894e-22
      32.1000   5.02070e-22
      32.2000   3.38106e-22
      32.3000   2.41344e-22
      32.4000   1.74363e-22
      32.5000   1.12070e-22
      32.6000   8.51637e-23
      32.7000   5.83967e-23
      32.8000   3.98411e-23
      32.9000   2.92559e-23
      33.0000   1.87263e-23
      33.1000   1.38513e-23
      33.2000   9.75931e-24
      33.3000   6.27268e-24
      33.4000   4.70806e-24
      33.5000   3.15143e-24
      33.6000   2.14701e-24
      33.7000   1.56220e-24
      33.8000   9.80317e-25
      33.9000   7.20178e-25
      34.0000   5.05416e-25
      34.1000   3.14312e-25
      34.2000   2.35419e-25
      34.3000   1.56894e-25
      34.4000   1.00875e-25
      34.5000   7.36827e-26
      34.6000   4.66202e-26
      34.7000   3.14878e-26
      34.8000   2.19158e-26
      34.9000   1.23886e-26
      35.0000   8.86002e-27
      35.1000   5.96349e-27
      35.2000   3.29802e-27
      35.3000   2.43853e-27
      35.4000   1.58308e-27
      35.5000   9.04514e-28
      35.6000   6.56863e-28
      35.7000   4.10379e-28
      35.8000   2.42848e-28
      35.9000   1.73273e-28
      36.0000   1.04025e-28
      36.1000   6.38466e-29
      36.2000   4.47958e-29
      36.3000   2.58350e-29
      36.4000   1.64400e-29
      36.5000   1.13581e-29
      36.6000   6.30057e-30
      36.7000   4.14555e-30
      36.8000   2.82640e-30
      36.9000   1.51360e-30
      37.0000   1.02414e-30
      37.1000   6.90969e-31
      37.2000   3.59377e-31
      37.3000   2.47879e-31
      37.4000   1.66038e-31
      37.5000   8.45928e-32
      37.6000   5.87681e-32
      37.7000   3.92317e-32
      37.8000   1.97898e-32
      37.9000   1.36451e-32
      38.0000   9.11424e-33
      38.1000   4.60509e-33
      38.2000   3.10063e-33
      38.3000   2.08039e-33
      38.4000   1.06505e-33
      38.5000   6.88870e-34
      38.6000   4.66044e-34
      38.7000   2.44290e-34
      38.8000   1.49523e-34
      38.9000   1.02336e-34
      39.0000   5.53741e-35
      39.1000   3.16726e-35
      39.2000   2.19893e-35
      39.3000   1.23525e-35
      39.4000   6.53887e-36
      39.5000   4.61451e-36
      39.6000   2.69954e-36
      39.7000   1.31394e-36
      39.8000   9.43881e-37
      39.9000   5.75599e-37
      40.0000   2.56636e-37
      40.1000   1.87807e-37
      40.2000   1.19309e-37
      40.3000   5.11499e-38
      40.4000   3.62796e-38
      40.5000   2.39665e-38
      40.6000   1.17125e-38
      40.7000   6.79121e-39
      40.8000   4.65313e-39
      40.9000   2.52553e-39
      41.0000   1.22939e-39
      41.1000   8.71221e-40
      41.2000   5.14817e-40
      41.3000   2.14944e-40
      41.4000   1.57093e-40
      41.5000   9.95104e-41
      41.6000   4.22113e-41
      41.7000   2.72468e-41
      41.8000   1.82785e-41
      41.9000   9.35507e-42
      42.0000   4.54301e-42
      42.1000   3.19496e-42
      42.2000   1.85672e-42
      42.3000   7.25873e-43
      42.4000   5.29691e-43
      42.5000   3.39114e-43
      42.6000   1.47136e-43
      42.7000   8.26766e-44
      42.8000   5.46506e-44
      42.9000   2.94273e-44
      43.0000   1.26117e-44
      43.1000   9.80909e-45
      43.2000   7.00649e-45
      43.3000       0.00000
      43.4000   2.80260e-45
      43.5000   2.80260e-45
      43.6000   2.80260e-45
      43.7000       0.00000
      43.8000       0.00000
      43.9000       0.00000
      44.0000       0.00000
      44.1000       0.00000
      44.2000       0.00000
      44.3000       0.00000
      44.4000       0.00000
      44.5000       0.00000
      44.6000       0.00000
      44.7000       0.00000
      44.8000       0.00000
      44.9000       0.00000
      45.0000       0.00000
      45.1000       0.00000
      45.2000       0.00000
      45.3000       0.00000
      45.4000       0.00000
      45.5000       0.00000
      45.6000       0.00000
      45.7000       0.00000
      45.8000       0.00000
      45.9000       0.00000
      46.0000       0.00000
      46.1000       0.00000
      46.2000       0.00000
      46.3000       0.00000
      46.4000       0.00000
      46.5000       0.00000
      46.6000       0.00000
      46.7000       0.00000
      46.8000       0.00000
      46.9000       0.00000
      47.0000       0.00000
      47.1000       0.00000
      47.2000       0.00000
      47.3000       0.00000
      47.4000       0.00000
      47.5000       0.00000
      47.6000       0.00000
      47.7000       0.00000
      47.8000       0.00000
      47.9000       0.00000
      48.0000       0.00000
      48.1000       0.00000
      48.2000       0.00000
      48.3000       0.00000
      48.4000       0.00000
      48.5000       0.00000
      48.6000       0.00000
      48.7000       0.00000
      48.8000       0.00000
      48.9000       0.00000
      49.0000       0.00000
      49.1000       0.00000
      49.2000       0.00000
      49.3000       0.00000
      49.4000       0.00000
      49.5000       0.00000
      49.6000       0.00000
      49.7000       0.00000
      49.8000       0.00000
      49.9000       0.00000
      50.0000       0.00000
      50.1000       0.00000
      50.2000       0.00000
      50.3000       0.00000
      50.4000       0.00000
      50.5000       0.00000
      50.6000       0.00000
      50.7000       0.00000
      50.8000       0.00000
      50.9000       0.00000
      51.0000       0.00000
      51.1000       0.00000
      51.2000       0.00000
      51.3000       0.00000
      51.4000       0.00000
      51.5000       0.00000
      51.6000       0.00000
      51.7000       0.00000
      51.8000       0.00000
      51.9000       0.00000
      52.0000       0.00000
      52.1000       0.00000
      52.2000       0.00000
      52.3000       0.00000
      52.4000       0.00000
      52.5000       0.00000
      52.6000       0.00000
      52.7000       0.00000
      52.8000       0.00000
      52.9000       0.00000
      53.0000       0.00000
      53.1000       0.00000
      53.2000       0.00000
      53.3000       0.00000
      53.4000       0.00000
      53.5000       0.00000
      53.6000       0.00000
      53.7000       0.00000
      53.8000       0.00000
      53.9000       0.00000
      54.0000       0.00000
      54.1000       0.00000
      54.2000       0.00000
      54.3000       0.00000
      54.4000       0.00000
      54.5000       0.00000
      54.6000       0.00000
      54.7000       0.00000
      54.8000       0.00000
      54.9000       0.00000
      55.0000       0.00000
      55.1000       0.00000
      55.2000       0.00000
      55.3000       0.00000
      55.4000       0.00000
      55.5000       0.00000
      55.6000       0.00000
      55.7000       0.00000
      55.8000       0.00000
      55.9000       0.00000
      56.0000       0.00000
      56.1000       0.00000
      56.2000       0.00000
      56.3000       0.00000
      56.4000       0.00000
      56.5000       0.00000
      56.6000       0.00000
      56.7000       0.00000
      56.8000       0.00000
      56.9000       0.00000
      57.0000       0.00000
      57.1000       0.00000
      57.2000       0.00000
      57.3000       0.00000
      57.4000       0.00000
      57.5000       0.00000
      57.6000       0.00000
      57.7000       0.00000
      57.8000       0.00000
      57.9000       0.00000
      58.0000       0.00000
      58.1000       0.00000
      58.2000       0.00000
      58.3000       0.00000
      58.4000       0.00000
      58.5000       0.00000
      58.6000       0.00000
      58.7000       0.00000
      58.8000       0.00000
      58.9000       0.00000
      59.0000       0.00000
      59.1000       0.00000
      59.2000       0.00000
      59.3000       0.00000
      59.4000       0.00000
      59.5000       0.00000
      59.6000       0.00000
      59.7000       0.00000
      59.8000       0.00000
      59.9000       0.00000
      60.0000       0.00000
      60.1000       0.00000
      60.2000       0.00000
      60.3000       0.00000
      60.4000       0.00000
      60.5000       0.00000
      60.6000       0.00000
      60.7000       0.00000
      60.8000       0.00000
      60.9000       0.00000
      61.0000       0.00000
      61.1000       0.00000
      61.2000       0.00000
      61.3000       0.00000
      61.4000       0.00000
      61.5000       0.00000
      61.6000       0.00000
      61.7000       0.00000
      61.8000       0.00000
      61.9000       0.00000
      62.0000       0.00000
      62.1000       0.00000
      62.2000       0.00000
      62.3000       0.00000
      62.4000       0.00000
      62.5000       0.00000
      62.6000       0.00000
      62.7000       0.00000
      62.8000       0.00000
      62.9000       0.00000
      63.0000       0.00000
      63.1000       0.00000
      63.2000       0.00000
      63.3000       0.00000
      63.4000       0.00000
      63.5000       0.00000
      63.6000       0.00000
      63.7000       0.00000
      63.8000       0.00000
      63.9000       0.00000
      64.0000       0.00000
      64.1000       0.00000
      64.2000       0.00000
      64.3000       0.00000
      64.4000       0.00000
      64.5000       0.00000
      64.6000       0.00000
      64.7000       0.00000
      64.8000       0.00000
      64.9000       0.00000
      65.0000       0.00000
      65.1000       0.00000
      65.2000       0.00000
      65.3000       0.00000
      65.4000       0.00000
      65.5000       0.00000
      65.6000       0.00000
      65.7000       0.00000
      65.8000       0.00000
      65.9000       0.00000
      66.0000       0.00000
      66.1000       0.00000
      66.2000       0.00000
      66.3000       0.00000
      66.4000       0.00000
      66.5000       0.00000
      66.6000       0.00000
      66.7000       0.00000
      66.8000       0.00000
      66.9000       0.00000
      67.0000       0.00000
      67.1000       0.00000
      67.2000       0.00000
      67.3000       0.00000
      67.4000       0.00000
      67.5000       0.00000
      67.6000       0.00000
      67.7000       0.00000
      67.8000       0.00000
      67.9000       0.00000
      68.0000       0.00000
      68.1000       0.00000
      68.2000       0.00000
      68.3000       0.00000
      68.4000       0.00000
      68.5000       0.00000
      68.6000       0.00000
      68.7000       0.00000
      68.8000       0.00000
      68.9000       0.00000
      69.0000       0.00000
      69.1000       0.00000
      69.2000       0.00000
      69.3000       0.00000
      69.4000       0.00000
      69.5000       0.00000
      69.6000       0.00000
      69.7000       0.00000
      69.8000       0.00000
      69.9000       0.00000
      70.0000       0.00000
      70.1000       0.00000
      70.2000       0.00000
      70.3000       0.00000
      70.4000       0.00000
      70.5000       0.00000
      70.6000       0.00000
      70.7000       0.00000
      70.8000       0.00000
      70.9000       0.00000
      71.0000       0.00000
      71.1000       0.00000
      71.2000       0.00000
      71.3000       0.00000
      71.4000       0.00000
      71.5000       0.00000
      71.6000       0.00000
      71.7000       0.00000
      71.8000       0.00000
      71.9000       0.00000
      72.0000       0.00000
