Filter: Al-poly/Al-thick
observation_date 22-Sept-2015 22:40:45
wavelength effective area 
      1.00000   2.52639e-10
      1.10000   6.98657e-10
      1.20000   1.74870e-09
      1.30000   3.99960e-09
      1.40000   8.61935e-09
      1.50000   1.73337e-08
      1.60000   3.28169e-08
      1.70000   5.90765e-08
      1.80000   1.01105e-07
      1.90000   1.65511e-07
      2.00000   2.59610e-07
      2.10000   3.91708e-07
      2.20000   5.70926e-07
      2.30000   8.02658e-07
      2.40000   1.09013e-06
      2.50000   1.42514e-06
      2.60000   1.83859e-06
      2.70000   2.28984e-06
      2.80000   2.76497e-06
      2.90000   3.26002e-06
      3.00000   3.73781e-06
      3.10000   4.17631e-06
      3.20000   4.55426e-06
      3.30000   4.84984e-06
      3.40000   5.04257e-06
      3.50000   5.12303e-06
      3.60000   5.10291e-06
      3.70000   4.96425e-06
      3.80000   4.73649e-06
      3.90000   4.43015e-06
      4.00000   4.05965e-06
      4.10000   3.64871e-06
      4.20000   3.21965e-06
      4.30000   2.79043e-06
      4.40000   2.37622e-06
      4.50000   1.98802e-06
      4.60000   1.63303e-06
      4.70000   1.32153e-06
      4.80000   1.05188e-06
      4.90000   8.14176e-07
      5.00000   6.36899e-07
      5.10000   4.83954e-07
      5.20000   3.63414e-07
      5.30000   2.66383e-07
      5.40000   1.92116e-07
      5.50000   1.36886e-07
      5.60000   9.30246e-08
      5.70000   6.55163e-08
      5.80000   4.09662e-08
      5.90000   3.30261e-08
      6.00000   2.31272e-08
      6.10000   1.51834e-08
      6.20000   9.61144e-09
      6.30000   5.73356e-09
      6.40000   3.21988e-09
      6.50000   1.70821e-09
      6.60000   8.50587e-10
      6.70000   4.07966e-10
      6.80000   1.89551e-10
      6.90000   1.13518e-10
      7.00000   5.63488e-11
      7.10000   2.66834e-11
      7.20000   1.22339e-11
      7.30000   5.52914e-12
      7.40000   2.54545e-12
      7.50000   1.12209e-12
      7.60000   4.72039e-13
      7.70000   2.04846e-13
      7.80000   8.39089e-14
      7.90000   3.35864e-14
      8.00000     0.0671431
      8.10000     0.0670288
      8.20000     0.0619523
      8.30000     0.0568668
      8.40000     0.0521517
      8.50000     0.0476845
      8.60000     0.0434962
      8.70000     0.0395395
      8.80000     0.0358531
      8.90000     0.0323918
      9.00000     0.0291814
      9.10000     0.0262135
      9.20000     0.0234600
      9.30000     0.0209586
      9.40000     0.0186606
      9.50000     0.0165541
      9.60000     0.0146654
      9.70000     0.0129486
      9.80000     0.0113866
      9.90000    0.00998656
      10.0000    0.00873252
      10.1000    0.00760599
      10.2000    0.00659839
      10.3000    0.00571151
      10.4000    0.00493368
      10.5000    0.00424723
      10.6000    0.00364382
      10.7000    0.00311539
      10.8000    0.00265677
      10.9000    0.00226254
      11.0000    0.00192052
      11.1000    0.00162489
      11.2000    0.00137027
      11.3000    0.00115183
      11.4000   0.000965082
      11.5000   0.000805988
      11.6000   0.000670956
      11.7000   0.000557907
      11.8000   0.000462572
      11.9000   0.000383150
      12.0000   0.000316533
      12.1000   0.000261951
      12.2000   0.000220283
      12.3000   0.000182289
      12.4000   0.000149039
      12.5000   0.000121370
      12.6000   9.84859e-05
      12.7000   7.96388e-05
      12.8000   6.41871e-05
      12.9000   5.15726e-05
      13.0000   4.13067e-05
      13.1000   3.29768e-05
      13.2000   2.62396e-05
      13.3000   2.08080e-05
      13.4000   1.64441e-05
      13.5000   1.29572e-05
      13.6000   1.02247e-05
      13.7000   8.04296e-06
      13.8000   6.30561e-06
      13.9000   4.92635e-06
      14.0000   3.83457e-06
      14.1000   2.97298e-06
      14.2000   2.29534e-06
      14.3000   1.76439e-06
      14.4000   1.35011e-06
      14.5000   1.03274e-06
      14.6000   7.92283e-07
      14.7000   6.04859e-07
      14.8000   4.59343e-07
      14.9000   3.46865e-07
      15.0000   2.60362e-07
      15.1000   1.94201e-07
      15.2000   1.46255e-07
      15.3000   1.09745e-07
      15.4000   8.17471e-08
      15.5000   6.04271e-08
      15.6000   4.43140e-08
      15.7000   3.26301e-08
      15.8000   2.41809e-08
      15.9000   1.77543e-08
      16.0000   1.29151e-08
      16.1000   9.30847e-09
      16.2000   6.81917e-09
      16.3000   4.98192e-09
      16.4000   3.59501e-09
      16.5000   2.56281e-09
      16.6000   1.83994e-09
      16.7000   1.33269e-09
      16.8000   9.49976e-10
      16.9000   6.66875e-10
      17.0000   4.73153e-10
      17.1000   3.38373e-10
      17.2000   2.37254e-10
      17.3000   1.63360e-10
      17.4000   1.16317e-10
      17.5000   8.22971e-11
      17.6000   5.72111e-11
      17.7000   3.99023e-11
      17.8000   2.87672e-11
      17.9000   2.02521e-11
      18.0000   1.39264e-11
      18.1000   9.96350e-12
      18.2000   6.94312e-12
      18.3000   4.68020e-12
      18.4000   3.22812e-12
      18.5000   2.19412e-12
      18.6000   1.42768e-12
      18.7000   9.45709e-13
      18.8000   6.25015e-13
      18.9000   3.94269e-13
      19.0000   2.58275e-13
      19.1000   1.68661e-13
      19.2000   1.04762e-13
      19.3000   6.89583e-14
      19.4000   4.45506e-14
      19.5000   2.73355e-14
      19.6000   1.82963e-14
      19.7000   1.16692e-14
      19.8000   7.16150e-15
      19.9000   4.82126e-15
      20.0000   3.00936e-15
      20.1000   1.90795e-15
      20.2000   1.23965e-15
      20.3000   7.47787e-16
      20.4000   4.90081e-16
      20.5000   3.04900e-16
      20.6000   1.83752e-16
      20.7000   1.20059e-16
      20.8000   7.11172e-17
      20.9000   4.53664e-17
      21.0000   2.77915e-17
      21.1000   1.62967e-17
      21.2000   1.05195e-17
      21.3000   6.03884e-18
      21.4000   3.83992e-18
      21.5000   2.27405e-18
      21.6000   1.34307e-18
      21.7000   8.32752e-19
      21.8000   4.55872e-19
      21.9000   2.96685e-19
      22.0000   1.66570e-19
      22.1000   1.02525e-19
      22.2000   5.93231e-20
      22.3000   3.40504e-20
      22.4000   2.03635e-20
      22.5000   1.04059e-20
      22.6000   6.26060e-21
      22.7000   2.94593e-21
      22.8000   2.50613e-21
      22.9000   2.05784e-21
      23.0000   1.58609e-21
      23.1000   1.13925e-21
      23.2000   7.16849e-22
      23.3000   4.46614e-22
      23.4000   2.51184e-22
      23.5000   1.54428e-22
      23.6000   8.19839e-23
      23.7000   5.21574e-23
      23.8000   2.64816e-23
      23.9000   1.71821e-23
      24.0000   8.73968e-24
      24.1000   5.55211e-24
      24.2000   2.82284e-24
      24.3000   1.76093e-24
      24.4000   8.96771e-25
      24.5000   5.51237e-25
      24.6000   2.81227e-25
      24.7000   1.70767e-25
      24.8000   8.70085e-26
      24.9000   5.25573e-26
      25.0000   2.67981e-26
      25.1000   1.61046e-26
      25.2000   8.13108e-27
      25.3000   4.89210e-27
      25.4000   2.44339e-27
      25.5000   1.47419e-27
      25.6000   7.21656e-28
      25.7000   4.38642e-28
      25.8000   2.09643e-28
      25.9000   1.28786e-28
      26.0000   5.97525e-29
      26.1000   3.72237e-29
      26.2000   1.66980e-29
      26.3000   1.05766e-29
      26.4000   4.56915e-30
      26.5000   2.94870e-30
      26.6000   1.34675e-30
      26.7000   8.05127e-31
      26.8000   3.92490e-31
      26.9000   2.15055e-31
      27.0000   1.11594e-31
      27.1000   5.60959e-32
      27.2000   3.08508e-32
      27.3000   1.42656e-32
      27.4000   8.30431e-33
      27.5000   3.56837e-33
      27.6000   2.17707e-33
      27.7000   8.61794e-34
      27.8000   5.49251e-34
      27.9000   2.40407e-34
      28.0000   1.33705e-34
      28.1000   6.67645e-35
      28.2000   3.16609e-35
      28.3000   1.76260e-35
      28.4000   7.47429e-36
      28.5000   4.50068e-36
      28.6000   1.72450e-36
      28.7000   1.11821e-36
      28.8000   5.19356e-37
      28.9000   2.83735e-37
      29.0000   1.52028e-37
      29.1000   6.92709e-38
      29.2000   4.10965e-38
      29.3000   1.62940e-38
      29.4000   1.04324e-38
      29.5000   4.64477e-39
      29.6000   2.50956e-39
      29.7000   1.33974e-39
      29.8000   5.75297e-40
      29.9000   3.45644e-40
      30.0000   1.26121e-40
      30.1000   8.23571e-41
      30.2000   3.91537e-41
      30.3000   1.85854e-41
      30.4000   1.08783e-41
      30.5000   4.51779e-42
      30.6000   2.86005e-42
      30.7000   1.22053e-42
      30.8000   6.23578e-43
      30.9000   3.39114e-43
      31.0000   1.27518e-43
      31.1000   7.98740e-44
      31.2000   3.22299e-44
      31.3000   1.54143e-44
      31.4000   9.80909e-45
      31.5000   2.80260e-45
      31.6000   2.80260e-45
      31.7000  -2.80260e-45
      31.8000       0.00000
      31.9000       0.00000
      32.0000       0.00000
      32.1000       0.00000
      32.2000       0.00000
      32.3000       0.00000
      32.4000       0.00000
      32.5000       0.00000
      32.6000       0.00000
      32.7000       0.00000
      32.8000       0.00000
      32.9000       0.00000
      33.0000       0.00000
      33.1000       0.00000
      33.2000       0.00000
      33.3000       0.00000
      33.4000       0.00000
      33.5000       0.00000
      33.6000       0.00000
      33.7000       0.00000
      33.8000       0.00000
      33.9000       0.00000
      34.0000       0.00000
      34.1000       0.00000
      34.2000       0.00000
      34.3000       0.00000
      34.4000       0.00000
      34.5000       0.00000
      34.6000       0.00000
      34.7000       0.00000
      34.8000       0.00000
      34.9000       0.00000
      35.0000       0.00000
      35.1000       0.00000
      35.2000       0.00000
      35.3000       0.00000
      35.4000       0.00000
      35.5000       0.00000
      35.6000       0.00000
      35.7000       0.00000
      35.8000       0.00000
      35.9000       0.00000
      36.0000       0.00000
      36.1000       0.00000
      36.2000       0.00000
      36.3000       0.00000
      36.4000       0.00000
      36.5000       0.00000
      36.6000       0.00000
      36.7000       0.00000
      36.8000       0.00000
      36.9000       0.00000
      37.0000       0.00000
      37.1000       0.00000
      37.2000       0.00000
      37.3000       0.00000
      37.4000       0.00000
      37.5000       0.00000
      37.6000       0.00000
      37.7000       0.00000
      37.8000       0.00000
      37.9000       0.00000
      38.0000       0.00000
      38.1000       0.00000
      38.2000       0.00000
      38.3000       0.00000
      38.4000       0.00000
      38.5000       0.00000
      38.6000       0.00000
      38.7000       0.00000
      38.8000       0.00000
      38.9000       0.00000
      39.0000       0.00000
      39.1000       0.00000
      39.2000       0.00000
      39.3000       0.00000
      39.4000       0.00000
      39.5000       0.00000
      39.6000       0.00000
      39.7000       0.00000
      39.8000       0.00000
      39.9000       0.00000
      40.0000       0.00000
      40.1000       0.00000
      40.2000       0.00000
      40.3000       0.00000
      40.4000       0.00000
      40.5000       0.00000
      40.6000       0.00000
      40.7000       0.00000
      40.8000       0.00000
      40.9000       0.00000
      41.0000       0.00000
      41.1000       0.00000
      41.2000       0.00000
      41.3000       0.00000
      41.4000       0.00000
      41.5000       0.00000
      41.6000       0.00000
      41.7000       0.00000
      41.8000       0.00000
      41.9000       0.00000
      42.0000       0.00000
      42.1000       0.00000
      42.2000       0.00000
      42.3000       0.00000
      42.4000       0.00000
      42.5000       0.00000
      42.6000       0.00000
      42.7000       0.00000
      42.8000       0.00000
      42.9000       0.00000
      43.0000       0.00000
      43.1000       0.00000
      43.2000       0.00000
      43.3000       0.00000
      43.4000       0.00000
      43.5000       0.00000
      43.6000       0.00000
      43.7000       0.00000
      43.8000       0.00000
      43.9000       0.00000
      44.0000       0.00000
      44.1000       0.00000
      44.2000       0.00000
      44.3000       0.00000
      44.4000       0.00000
      44.5000       0.00000
      44.6000       0.00000
      44.7000       0.00000
      44.8000       0.00000
      44.9000       0.00000
      45.0000       0.00000
      45.1000       0.00000
      45.2000       0.00000
      45.3000       0.00000
      45.4000       0.00000
      45.5000       0.00000
      45.6000       0.00000
      45.7000       0.00000
      45.8000       0.00000
      45.9000       0.00000
      46.0000       0.00000
      46.1000       0.00000
      46.2000       0.00000
      46.3000       0.00000
      46.4000       0.00000
      46.5000       0.00000
      46.6000       0.00000
      46.7000       0.00000
      46.8000       0.00000
      46.9000       0.00000
      47.0000       0.00000
      47.1000       0.00000
      47.2000       0.00000
      47.3000       0.00000
      47.4000       0.00000
      47.5000       0.00000
      47.6000       0.00000
      47.7000       0.00000
      47.8000       0.00000
      47.9000       0.00000
      48.0000       0.00000
      48.1000       0.00000
      48.2000       0.00000
      48.3000       0.00000
      48.4000       0.00000
      48.5000       0.00000
      48.6000       0.00000
      48.7000       0.00000
      48.8000       0.00000
      48.9000       0.00000
      49.0000       0.00000
      49.1000       0.00000
      49.2000       0.00000
      49.3000       0.00000
      49.4000       0.00000
      49.5000       0.00000
      49.6000       0.00000
      49.7000       0.00000
      49.8000       0.00000
      49.9000       0.00000
      50.0000       0.00000
      50.1000       0.00000
      50.2000       0.00000
      50.3000       0.00000
      50.4000       0.00000
      50.5000       0.00000
      50.6000       0.00000
      50.7000       0.00000
      50.8000       0.00000
      50.9000       0.00000
      51.0000       0.00000
      51.1000       0.00000
      51.2000       0.00000
      51.3000       0.00000
      51.4000       0.00000
      51.5000       0.00000
      51.6000       0.00000
      51.7000       0.00000
      51.8000       0.00000
      51.9000       0.00000
      52.0000       0.00000
      52.1000       0.00000
      52.2000       0.00000
      52.3000       0.00000
      52.4000       0.00000
      52.5000       0.00000
      52.6000       0.00000
      52.7000       0.00000
      52.8000       0.00000
      52.9000       0.00000
      53.0000       0.00000
      53.1000       0.00000
      53.2000       0.00000
      53.3000       0.00000
      53.4000       0.00000
      53.5000       0.00000
      53.6000       0.00000
      53.7000       0.00000
      53.8000       0.00000
      53.9000       0.00000
      54.0000       0.00000
      54.1000       0.00000
      54.2000       0.00000
      54.3000       0.00000
      54.4000       0.00000
      54.5000       0.00000
      54.6000       0.00000
      54.7000       0.00000
      54.8000       0.00000
      54.9000       0.00000
      55.0000       0.00000
      55.1000       0.00000
      55.2000       0.00000
      55.3000       0.00000
      55.4000       0.00000
      55.5000       0.00000
      55.6000       0.00000
      55.7000       0.00000
      55.8000       0.00000
      55.9000       0.00000
      56.0000       0.00000
      56.1000       0.00000
      56.2000       0.00000
      56.3000       0.00000
      56.4000       0.00000
      56.5000       0.00000
      56.6000       0.00000
      56.7000       0.00000
      56.8000       0.00000
      56.9000       0.00000
      57.0000       0.00000
      57.1000       0.00000
      57.2000       0.00000
      57.3000       0.00000
      57.4000       0.00000
      57.5000       0.00000
      57.6000       0.00000
      57.7000       0.00000
      57.8000       0.00000
      57.9000       0.00000
      58.0000       0.00000
      58.1000       0.00000
      58.2000       0.00000
      58.3000       0.00000
      58.4000       0.00000
      58.5000       0.00000
      58.6000       0.00000
      58.7000       0.00000
      58.8000       0.00000
      58.9000       0.00000
      59.0000       0.00000
      59.1000       0.00000
      59.2000       0.00000
      59.3000       0.00000
      59.4000       0.00000
      59.5000       0.00000
      59.6000       0.00000
      59.7000       0.00000
      59.8000       0.00000
      59.9000       0.00000
      60.0000       0.00000
      60.1000       0.00000
      60.2000       0.00000
      60.3000       0.00000
      60.4000       0.00000
      60.5000       0.00000
      60.6000       0.00000
      60.7000       0.00000
      60.8000       0.00000
      60.9000       0.00000
      61.0000       0.00000
      61.1000       0.00000
      61.2000       0.00000
      61.3000       0.00000
      61.4000       0.00000
      61.5000       0.00000
      61.6000       0.00000
      61.7000       0.00000
      61.8000       0.00000
      61.9000       0.00000
      62.0000       0.00000
      62.1000       0.00000
      62.2000       0.00000
      62.3000       0.00000
      62.4000       0.00000
      62.5000       0.00000
      62.6000       0.00000
      62.7000       0.00000
      62.8000       0.00000
      62.9000       0.00000
      63.0000       0.00000
      63.1000       0.00000
      63.2000       0.00000
      63.3000       0.00000
      63.4000       0.00000
      63.5000       0.00000
      63.6000       0.00000
      63.7000       0.00000
      63.8000       0.00000
      63.9000       0.00000
      64.0000       0.00000
      64.1000       0.00000
      64.2000       0.00000
      64.3000       0.00000
      64.4000       0.00000
      64.5000       0.00000
      64.6000       0.00000
      64.7000       0.00000
      64.8000       0.00000
      64.9000       0.00000
      65.0000       0.00000
      65.1000       0.00000
      65.2000       0.00000
      65.3000       0.00000
      65.4000       0.00000
      65.5000       0.00000
      65.6000       0.00000
      65.7000       0.00000
      65.8000       0.00000
      65.9000       0.00000
      66.0000       0.00000
      66.1000       0.00000
      66.2000       0.00000
      66.3000       0.00000
      66.4000       0.00000
      66.5000       0.00000
      66.6000       0.00000
      66.7000       0.00000
      66.8000       0.00000
      66.9000       0.00000
      67.0000       0.00000
      67.1000       0.00000
      67.2000       0.00000
      67.3000       0.00000
      67.4000       0.00000
      67.5000       0.00000
      67.6000       0.00000
      67.7000       0.00000
      67.8000       0.00000
      67.9000       0.00000
      68.0000       0.00000
      68.1000       0.00000
      68.2000       0.00000
      68.3000       0.00000
      68.4000       0.00000
      68.5000       0.00000
      68.6000       0.00000
      68.7000       0.00000
      68.8000       0.00000
      68.9000       0.00000
      69.0000       0.00000
      69.1000       0.00000
      69.2000       0.00000
      69.3000       0.00000
      69.4000       0.00000
      69.5000       0.00000
      69.6000       0.00000
      69.7000       0.00000
      69.8000       0.00000
      69.9000       0.00000
      70.0000       0.00000
      70.1000       0.00000
      70.2000       0.00000
      70.3000       0.00000
      70.4000       0.00000
      70.5000       0.00000
      70.6000       0.00000
      70.7000       0.00000
      70.8000       0.00000
      70.9000       0.00000
      71.0000       0.00000
      71.1000       0.00000
      71.2000       0.00000
      71.3000       0.00000
      71.4000       0.00000
      71.5000       0.00000
      71.6000       0.00000
      71.7000       0.00000
      71.8000       0.00000
      71.9000       0.00000
      72.0000       0.00000
