Filter: Al-poly/Al-thick
observation_date 22-Sept-2010 22:40:45
wavelength effective area 
      1.00000   2.52640e-10
      1.10000   6.98661e-10
      1.20000   1.74871e-09
      1.30000   3.99964e-09
      1.40000   8.61946e-09
      1.50000   1.73340e-08
      1.60000   3.28176e-08
      1.70000   5.90780e-08
      1.80000   1.01108e-07
      1.90000   1.65516e-07
      2.00000   2.59620e-07
      2.10000   3.91726e-07
      2.20000   5.70956e-07
      2.30000   8.02707e-07
      2.40000   1.09021e-06
      2.50000   1.42525e-06
      2.60000   1.83875e-06
      2.70000   2.29007e-06
      2.80000   2.76528e-06
      2.90000   3.26042e-06
      3.00000   3.73832e-06
      3.10000   4.17694e-06
      3.20000   4.55501e-06
      3.30000   4.85073e-06
      3.40000   5.04358e-06
      3.50000   5.12414e-06
      3.60000   5.10412e-06
      3.70000   4.96552e-06
      3.80000   4.73780e-06
      3.90000   4.43148e-06
      4.00000   4.06096e-06
      4.10000   3.64998e-06
      4.20000   3.22086e-06
      4.30000   2.79155e-06
      4.40000   2.37724e-06
      4.50000   1.98893e-06
      4.60000   1.63383e-06
      4.70000   1.32222e-06
      4.80000   1.05246e-06
      4.90000   8.14657e-07
      5.00000   6.37299e-07
      5.10000   4.84276e-07
      5.20000   3.63670e-07
      5.30000   2.66581e-07
      5.40000   1.92267e-07
      5.50000   1.36999e-07
      5.60000   9.31059e-08
      5.70000   6.55766e-08
      5.80000   4.10059e-08
      5.90000   3.30597e-08
      6.00000   2.31519e-08
      6.10000   1.52004e-08
      6.20000   9.62273e-09
      6.30000   5.74061e-09
      6.40000   3.22402e-09
      6.50000   1.71051e-09
      6.60000   8.51783e-10
      6.70000   4.08565e-10
      6.80000   1.89842e-10
      6.90000   1.13699e-10
      7.00000   5.64428e-11
      7.10000   2.67298e-11
      7.20000   1.22560e-11
      7.30000   5.53954e-12
      7.40000   2.55043e-12
      7.50000   1.12437e-12
      7.60000   4.73035e-13
      7.70000   2.05295e-13
      7.80000   8.40997e-14
      7.90000   3.36656e-14
      8.00000     0.0673072
      8.10000     0.0671985
      8.20000     0.0621148
      8.30000     0.0570212
      8.40000     0.0522982
      8.50000     0.0478230
      8.60000     0.0436268
      8.70000     0.0396622
      8.80000     0.0359680
      8.90000     0.0324990
      9.00000     0.0292811
      9.10000     0.0263059
      9.20000     0.0235452
      9.30000     0.0210371
      9.40000     0.0187326
      9.50000     0.0166199
      9.60000     0.0147255
      9.70000     0.0130032
      9.80000     0.0114361
      9.90000     0.0100312
      10.0000    0.00877266
      10.1000    0.00764193
      10.2000    0.00663044
      10.3000    0.00574001
      10.4000    0.00495897
      10.5000    0.00426959
      10.6000    0.00366351
      10.7000    0.00313268
      10.8000    0.00267190
      10.9000    0.00227575
      11.0000    0.00193202
      11.1000    0.00163487
      11.2000    0.00137890
      11.3000    0.00115926
      11.4000   0.000971467
      11.5000   0.000811452
      11.6000   0.000675615
      11.7000   0.000561874
      11.8000   0.000465941
      11.9000   0.000386006
      12.0000   0.000318948
      12.1000   0.000263995
      12.2000   0.000222041
      12.3000   0.000183777
      12.4000   0.000150282
      12.5000   0.000122405
      12.6000   9.93445e-05
      12.7000   8.03484e-05
      12.8000   6.47714e-05
      12.9000   5.20523e-05
      13.0000   4.16992e-05
      13.1000   3.32967e-05
      13.2000   2.64995e-05
      13.3000   2.10184e-05
      13.4000   1.66138e-05
      13.5000   1.30937e-05
      13.6000   1.03345e-05
      13.7000   8.13105e-06
      13.8000   6.37604e-06
      13.9000   4.98245e-06
      14.0000   3.87908e-06
      14.1000   3.00816e-06
      14.2000   2.32302e-06
      14.3000   1.78607e-06
      14.4000   1.36701e-06
      14.5000   1.04591e-06
      14.6000   8.02578e-07
      14.7000   6.12865e-07
      14.8000   4.65536e-07
      14.9000   3.51627e-07
      15.0000   2.64002e-07
      15.1000   1.96965e-07
      15.2000   1.48375e-07
      15.3000   1.11364e-07
      15.4000   8.29748e-08
      15.5000   6.13508e-08
      15.6000   4.50033e-08
      15.7000   3.31465e-08
      15.8000   2.45702e-08
      15.9000   1.80451e-08
      16.0000   1.31302e-08
      16.1000   9.46618e-09
      16.2000   6.93664e-09
      16.3000   5.06917e-09
      16.4000   3.65902e-09
      16.5000   2.60919e-09
      16.6000   1.87379e-09
      16.7000   1.35760e-09
      16.8000   9.68019e-10
      16.9000   6.79745e-10
      17.0000   4.82430e-10
      17.1000   3.45112e-10
      17.2000   2.42054e-10
      17.3000   1.66717e-10
      17.4000   1.18744e-10
      17.5000   8.40399e-11
      17.6000   5.84404e-11
      17.7000   4.07718e-11
      17.8000   2.94026e-11
      17.9000   2.07054e-11
      18.0000   1.42423e-11
      18.1000   1.01925e-11
      18.2000   7.10485e-12
      18.3000   4.79070e-12
      18.4000   3.30538e-12
      18.5000   2.24735e-12
      18.6000   1.46280e-12
      18.7000   9.69295e-13
      18.8000   6.40820e-13
      18.9000   4.04377e-13
      19.0000   2.64987e-13
      19.1000   1.73104e-13
      19.2000   1.07559e-13
      19.3000   7.08244e-14
      19.4000   4.57723e-14
      19.5000   2.80950e-14
      19.6000   1.88113e-14
      19.7000   1.20020e-14
      19.8000   7.36837e-15
      19.9000   4.96231e-15
      20.0000   3.09853e-15
      20.1000   1.96520e-15
      20.2000   1.27731e-15
      20.3000   7.70793e-16
      20.4000   5.05347e-16
      20.5000   3.14515e-16
      20.6000   1.89618e-16
      20.7000   1.23939e-16
      20.8000   7.34440e-17
      20.9000   4.68688e-17
      21.0000   2.87230e-17
      21.1000   1.68496e-17
      21.2000   1.08807e-17
      21.3000   6.24866e-18
      21.4000   3.97493e-18
      21.5000   2.35496e-18
      21.6000   1.39142e-18
      21.7000   8.63086e-19
      21.8000   4.72673e-19
      21.9000   3.07748e-19
      22.0000   1.72854e-19
      22.1000   1.06438e-19
      22.2000   6.16135e-20
      22.3000   3.53802e-20
      22.4000   2.11679e-20
      22.5000   1.08217e-20
      22.6000   6.51360e-21
      22.7000   3.06117e-21
      22.8000   2.59051e-21
      22.9000   2.11964e-21
      23.0000   1.63370e-21
      23.1000   1.17365e-21
      23.2000   7.38917e-22
      23.3000   4.60516e-22
      23.4000   2.59088e-22
      23.5000   1.59341e-22
      23.6000   8.46210e-23
      23.7000   5.38534e-23
      23.8000   2.73520e-23
      23.9000   1.77530e-23
      24.0000   9.03320e-24
      24.1000   5.74059e-24
      24.2000   2.91969e-24
      24.3000   1.82200e-24
      24.4000   9.28197e-25
      24.5000   5.70759e-25
      24.6000   2.91292e-25
      24.7000   1.76942e-25
      24.8000   9.01880e-26
      24.9000   5.44978e-26
      25.0000   2.77978e-26
      25.1000   1.67116e-26
      25.2000   8.44070e-27
      25.3000   5.08030e-27
      25.4000   2.53834e-27
      25.5000   1.53207e-27
      25.6000   7.50270e-28
      25.7000   4.56207e-28
      25.8000   2.18121e-28
      25.9000   1.34045e-28
      26.0000   6.22166e-29
      26.1000   3.87738e-29
      26.2000   1.74001e-29
      26.3000   1.10256e-29
      26.4000   4.76499e-30
      26.5000   3.07631e-30
      26.6000   1.40559e-30
      26.7000   8.40640e-31
      26.8000   4.09966e-31
      26.9000   2.24721e-31
      27.0000   1.16658e-31
      27.1000   5.86652e-32
      27.2000   3.22771e-32
      27.3000   1.49313e-32
      27.4000   8.69543e-33
      27.5000   3.73800e-33
      27.6000   2.28152e-33
      27.7000   9.03520e-34
      27.8000   5.76089e-34
      27.9000   2.52262e-34
      28.0000   1.40358e-34
      28.1000   7.01170e-35
      28.2000   3.32651e-35
      28.3000   1.85272e-35
      28.4000   7.85987e-36
      28.5000   4.73494e-36
      28.6000   1.81507e-36
      28.7000   1.17746e-36
      28.8000   5.47119e-37
      28.9000   2.99038e-37
      29.0000   1.60300e-37
      29.1000   7.30729e-38
      29.2000   4.33719e-38
      29.3000   1.72041e-38
      29.4000   1.10202e-38
      29.5000   4.90872e-39
      29.6000   2.65342e-39
      29.7000   1.41720e-39
      29.8000   6.08845e-40
      29.9000   3.65970e-40
      30.0000   1.33604e-40
      30.1000   8.72827e-41
      30.2000   4.15191e-41
      30.3000   1.97163e-41
      30.4000   1.15467e-41
      30.5000   4.79524e-42
      30.6000   3.03802e-42
      30.7000   1.29760e-42
      30.8000   6.64215e-43
      30.9000   3.57331e-43
      31.0000   1.37327e-43
      31.1000   8.26766e-44
      31.2000   3.50325e-44
      31.3000   1.96182e-44
      31.4000   9.80909e-45
      31.5000   2.80260e-45
      31.6000   2.80260e-45
      31.7000  -2.80260e-45
      31.8000       0.00000
      31.9000       0.00000
      32.0000       0.00000
      32.1000       0.00000
      32.2000       0.00000
      32.3000       0.00000
      32.4000       0.00000
      32.5000       0.00000
      32.6000       0.00000
      32.7000       0.00000
      32.8000       0.00000
      32.9000       0.00000
      33.0000       0.00000
      33.1000       0.00000
      33.2000       0.00000
      33.3000       0.00000
      33.4000       0.00000
      33.5000       0.00000
      33.6000       0.00000
      33.7000       0.00000
      33.8000       0.00000
      33.9000       0.00000
      34.0000       0.00000
      34.1000       0.00000
      34.2000       0.00000
      34.3000       0.00000
      34.4000       0.00000
      34.5000       0.00000
      34.6000       0.00000
      34.7000       0.00000
      34.8000       0.00000
      34.9000       0.00000
      35.0000       0.00000
      35.1000       0.00000
      35.2000       0.00000
      35.3000       0.00000
      35.4000       0.00000
      35.5000       0.00000
      35.6000       0.00000
      35.7000       0.00000
      35.8000       0.00000
      35.9000       0.00000
      36.0000       0.00000
      36.1000       0.00000
      36.2000       0.00000
      36.3000       0.00000
      36.4000       0.00000
      36.5000       0.00000
      36.6000       0.00000
      36.7000       0.00000
      36.8000       0.00000
      36.9000       0.00000
      37.0000       0.00000
      37.1000       0.00000
      37.2000       0.00000
      37.3000       0.00000
      37.4000       0.00000
      37.5000       0.00000
      37.6000       0.00000
      37.7000       0.00000
      37.8000       0.00000
      37.9000       0.00000
      38.0000       0.00000
      38.1000       0.00000
      38.2000       0.00000
      38.3000       0.00000
      38.4000       0.00000
      38.5000       0.00000
      38.6000       0.00000
      38.7000       0.00000
      38.8000       0.00000
      38.9000       0.00000
      39.0000       0.00000
      39.1000       0.00000
      39.2000       0.00000
      39.3000       0.00000
      39.4000       0.00000
      39.5000       0.00000
      39.6000       0.00000
      39.7000       0.00000
      39.8000       0.00000
      39.9000       0.00000
      40.0000       0.00000
      40.1000       0.00000
      40.2000       0.00000
      40.3000       0.00000
      40.4000       0.00000
      40.5000       0.00000
      40.6000       0.00000
      40.7000       0.00000
      40.8000       0.00000
      40.9000       0.00000
      41.0000       0.00000
      41.1000       0.00000
      41.2000       0.00000
      41.3000       0.00000
      41.4000       0.00000
      41.5000       0.00000
      41.6000       0.00000
      41.7000       0.00000
      41.8000       0.00000
      41.9000       0.00000
      42.0000       0.00000
      42.1000       0.00000
      42.2000       0.00000
      42.3000       0.00000
      42.4000       0.00000
      42.5000       0.00000
      42.6000       0.00000
      42.7000       0.00000
      42.8000       0.00000
      42.9000       0.00000
      43.0000       0.00000
      43.1000       0.00000
      43.2000       0.00000
      43.3000       0.00000
      43.4000       0.00000
      43.5000       0.00000
      43.6000       0.00000
      43.7000       0.00000
      43.8000       0.00000
      43.9000       0.00000
      44.0000       0.00000
      44.1000       0.00000
      44.2000       0.00000
      44.3000       0.00000
      44.4000       0.00000
      44.5000       0.00000
      44.6000       0.00000
      44.7000       0.00000
      44.8000       0.00000
      44.9000       0.00000
      45.0000       0.00000
      45.1000       0.00000
      45.2000       0.00000
      45.3000       0.00000
      45.4000       0.00000
      45.5000       0.00000
      45.6000       0.00000
      45.7000       0.00000
      45.8000       0.00000
      45.9000       0.00000
      46.0000       0.00000
      46.1000       0.00000
      46.2000       0.00000
      46.3000       0.00000
      46.4000       0.00000
      46.5000       0.00000
      46.6000       0.00000
      46.7000       0.00000
      46.8000       0.00000
      46.9000       0.00000
      47.0000       0.00000
      47.1000       0.00000
      47.2000       0.00000
      47.3000       0.00000
      47.4000       0.00000
      47.5000       0.00000
      47.6000       0.00000
      47.7000       0.00000
      47.8000       0.00000
      47.9000       0.00000
      48.0000       0.00000
      48.1000       0.00000
      48.2000       0.00000
      48.3000       0.00000
      48.4000       0.00000
      48.5000       0.00000
      48.6000       0.00000
      48.7000       0.00000
      48.8000       0.00000
      48.9000       0.00000
      49.0000       0.00000
      49.1000       0.00000
      49.2000       0.00000
      49.3000       0.00000
      49.4000       0.00000
      49.5000       0.00000
      49.6000       0.00000
      49.7000       0.00000
      49.8000       0.00000
      49.9000       0.00000
      50.0000       0.00000
      50.1000       0.00000
      50.2000       0.00000
      50.3000       0.00000
      50.4000       0.00000
      50.5000       0.00000
      50.6000       0.00000
      50.7000       0.00000
      50.8000       0.00000
      50.9000       0.00000
      51.0000       0.00000
      51.1000       0.00000
      51.2000       0.00000
      51.3000       0.00000
      51.4000       0.00000
      51.5000       0.00000
      51.6000       0.00000
      51.7000       0.00000
      51.8000       0.00000
      51.9000       0.00000
      52.0000       0.00000
      52.1000       0.00000
      52.2000       0.00000
      52.3000       0.00000
      52.4000       0.00000
      52.5000       0.00000
      52.6000       0.00000
      52.7000       0.00000
      52.8000       0.00000
      52.9000       0.00000
      53.0000       0.00000
      53.1000       0.00000
      53.2000       0.00000
      53.3000       0.00000
      53.4000       0.00000
      53.5000       0.00000
      53.6000       0.00000
      53.7000       0.00000
      53.8000       0.00000
      53.9000       0.00000
      54.0000       0.00000
      54.1000       0.00000
      54.2000       0.00000
      54.3000       0.00000
      54.4000       0.00000
      54.5000       0.00000
      54.6000       0.00000
      54.7000       0.00000
      54.8000       0.00000
      54.9000       0.00000
      55.0000       0.00000
      55.1000       0.00000
      55.2000       0.00000
      55.3000       0.00000
      55.4000       0.00000
      55.5000       0.00000
      55.6000       0.00000
      55.7000       0.00000
      55.8000       0.00000
      55.9000       0.00000
      56.0000       0.00000
      56.1000       0.00000
      56.2000       0.00000
      56.3000       0.00000
      56.4000       0.00000
      56.5000       0.00000
      56.6000       0.00000
      56.7000       0.00000
      56.8000       0.00000
      56.9000       0.00000
      57.0000       0.00000
      57.1000       0.00000
      57.2000       0.00000
      57.3000       0.00000
      57.4000       0.00000
      57.5000       0.00000
      57.6000       0.00000
      57.7000       0.00000
      57.8000       0.00000
      57.9000       0.00000
      58.0000       0.00000
      58.1000       0.00000
      58.2000       0.00000
      58.3000       0.00000
      58.4000       0.00000
      58.5000       0.00000
      58.6000       0.00000
      58.7000       0.00000
      58.8000       0.00000
      58.9000       0.00000
      59.0000       0.00000
      59.1000       0.00000
      59.2000       0.00000
      59.3000       0.00000
      59.4000       0.00000
      59.5000       0.00000
      59.6000       0.00000
      59.7000       0.00000
      59.8000       0.00000
      59.9000       0.00000
      60.0000       0.00000
      60.1000       0.00000
      60.2000       0.00000
      60.3000       0.00000
      60.4000       0.00000
      60.5000       0.00000
      60.6000       0.00000
      60.7000       0.00000
      60.8000       0.00000
      60.9000       0.00000
      61.0000       0.00000
      61.1000       0.00000
      61.2000       0.00000
      61.3000       0.00000
      61.4000       0.00000
      61.5000       0.00000
      61.6000       0.00000
      61.7000       0.00000
      61.8000       0.00000
      61.9000       0.00000
      62.0000       0.00000
      62.1000       0.00000
      62.2000       0.00000
      62.3000       0.00000
      62.4000       0.00000
      62.5000       0.00000
      62.6000       0.00000
      62.7000       0.00000
      62.8000       0.00000
      62.9000       0.00000
      63.0000       0.00000
      63.1000       0.00000
      63.2000       0.00000
      63.3000       0.00000
      63.4000       0.00000
      63.5000       0.00000
      63.6000       0.00000
      63.7000       0.00000
      63.8000       0.00000
      63.9000       0.00000
      64.0000       0.00000
      64.1000       0.00000
      64.2000       0.00000
      64.3000       0.00000
      64.4000       0.00000
      64.5000       0.00000
      64.6000       0.00000
      64.7000       0.00000
      64.8000       0.00000
      64.9000       0.00000
      65.0000       0.00000
      65.1000       0.00000
      65.2000       0.00000
      65.3000       0.00000
      65.4000       0.00000
      65.5000       0.00000
      65.6000       0.00000
      65.7000       0.00000
      65.8000       0.00000
      65.9000       0.00000
      66.0000       0.00000
      66.1000       0.00000
      66.2000       0.00000
      66.3000       0.00000
      66.4000       0.00000
      66.5000       0.00000
      66.6000       0.00000
      66.7000       0.00000
      66.8000       0.00000
      66.9000       0.00000
      67.0000       0.00000
      67.1000       0.00000
      67.2000       0.00000
      67.3000       0.00000
      67.4000       0.00000
      67.5000       0.00000
      67.6000       0.00000
      67.7000       0.00000
      67.8000       0.00000
      67.9000       0.00000
      68.0000       0.00000
      68.1000       0.00000
      68.2000       0.00000
      68.3000       0.00000
      68.4000       0.00000
      68.5000       0.00000
      68.6000       0.00000
      68.7000       0.00000
      68.8000       0.00000
      68.9000       0.00000
      69.0000       0.00000
      69.1000       0.00000
      69.2000       0.00000
      69.3000       0.00000
      69.4000       0.00000
      69.5000       0.00000
      69.6000       0.00000
      69.7000       0.00000
      69.8000       0.00000
      69.9000       0.00000
      70.0000       0.00000
      70.1000       0.00000
      70.2000       0.00000
      70.3000       0.00000
      70.4000       0.00000
      70.5000       0.00000
      70.6000       0.00000
      70.7000       0.00000
      70.8000       0.00000
      70.9000       0.00000
      71.0000       0.00000
      71.1000       0.00000
      71.2000       0.00000
      71.3000       0.00000
      71.4000       0.00000
      71.5000       0.00000
      71.6000       0.00000
      71.7000       0.00000
      71.8000       0.00000
      71.9000       0.00000
      72.0000       0.00000
