Filter Al-poly/Al-thick
observation_date 22Sept2019
wavelength effective area
      1.00000   2.52639e-10
      1.10000   6.98656e-10
      1.20000   1.74869e-09
      1.30000   3.99959e-09
      1.40000   8.61932e-09
      1.50000   1.73337e-08
      1.60000   3.28168e-08
      1.70000   5.90762e-08
      1.80000   1.01104e-07
      1.90000   1.65509e-07
      2.00000   2.59608e-07
      2.10000   3.91704e-07
      2.20000   5.70919e-07
      2.30000   8.02647e-07
      2.40000   1.09011e-06
      2.50000   1.42512e-06
      2.60000   1.83855e-06
      2.70000   2.28979e-06
      2.80000   2.76491e-06
      2.90000   3.25993e-06
      3.00000   3.73770e-06
      3.10000   4.17616e-06
      3.20000   4.55409e-06
      3.30000   4.84964e-06
      3.40000   5.04235e-06
      3.50000   5.12278e-06
      3.60000   5.10264e-06
      3.70000   4.96396e-06
      3.80000   4.73619e-06
      3.90000   4.42985e-06
      4.00000   4.05935e-06
      4.10000   3.64842e-06
      4.20000   3.21937e-06
      4.30000   2.79017e-06
      4.40000   2.37599e-06
      4.50000   1.98781e-06
      4.60000   1.63285e-06
      4.70000   1.32137e-06
      4.80000   1.05174e-06
      4.90000   8.14067e-07
      5.00000   6.36809e-07
      5.10000   4.83881e-07
      5.20000   3.63356e-07
      5.30000   2.66337e-07
      5.40000   1.92081e-07
      5.50000   1.36860e-07
      5.60000   9.30062e-08
      5.70000   6.55026e-08
      5.80000   4.09572e-08
      5.90000   3.30185e-08
      6.00000   2.31216e-08
      6.10000   1.51795e-08
      6.20000   9.60888e-09
      6.30000   5.73196e-09
      6.40000   3.21894e-09
      6.50000   1.70769e-09
      6.60000   8.50315e-10
      6.70000   4.07830e-10
      6.80000   1.89485e-10
      6.90000   1.13476e-10
      7.00000   5.63275e-11
      7.10000   2.66729e-11
      7.20000   1.22288e-11
      7.30000   5.52678e-12
      7.40000   2.54432e-12
      7.50000   1.12157e-12
      7.60000   4.71813e-13
      7.70000   2.04744e-13
      7.80000   8.38656e-14
      7.90000   3.35684e-14
      8.00000     0.0671059
      8.10000     0.0669903
      8.20000     0.0619154
      8.30000     0.0568318
      8.40000     0.0521185
      8.50000     0.0476531
      8.60000     0.0434666
      8.70000     0.0395117
      8.80000     0.0358270
      8.90000     0.0323675
      9.00000     0.0291588
      9.10000     0.0261926
      9.20000     0.0234406
      9.30000     0.0209408
      9.40000     0.0186442
      9.50000     0.0165391
      9.60000     0.0146518
      9.70000     0.0129362
      9.80000     0.0113754
      9.90000    0.00997644
      10.0000    0.00872342
      10.1000    0.00759784
      10.2000    0.00659113
      10.3000    0.00570506
      10.4000    0.00492795
      10.5000    0.00424217
      10.6000    0.00363936
      10.7000    0.00311148
      10.8000    0.00265335
      10.9000    0.00225955
      11.0000    0.00191791
      11.1000    0.00162263
      11.2000    0.00136832
      11.3000    0.00115014
      11.4000   0.000963637
      11.5000   0.000804751
      11.6000   0.000669902
      11.7000   0.000557009
      11.8000   0.000461810
      11.9000   0.000382504
      12.0000   0.000315987
      12.1000   0.000261488
      12.2000   0.000219886
      12.3000   0.000181953
      12.4000   0.000148758
      12.5000   0.000121136
      12.6000   9.82918e-05
      12.7000   7.94785e-05
      12.8000   6.40550e-05
      12.9000   5.14642e-05
      13.0000   4.12181e-05
      13.1000   3.29045e-05
      13.2000   2.61809e-05
      13.3000   2.07605e-05
      13.4000   1.64058e-05
      13.5000   1.29264e-05
      13.6000   1.01999e-05
      13.7000   8.02307e-06
      13.8000   6.28972e-06
      13.9000   4.91369e-06
      14.0000   3.82453e-06
      14.1000   2.96504e-06
      14.2000   2.28910e-06
      14.3000   1.75950e-06
      14.4000   1.34629e-06
      14.5000   1.02977e-06
      14.6000   7.89962e-07
      14.7000   6.03054e-07
      14.8000   4.57947e-07
      14.9000   3.45791e-07
      15.0000   2.59541e-07
      15.1000   1.93578e-07
      15.2000   1.45778e-07
      15.3000   1.09380e-07
      15.4000   8.14706e-08
      15.5000   6.02192e-08
      15.6000   4.41589e-08
      15.7000   3.25138e-08
      15.8000   2.40932e-08
      15.9000   1.76889e-08
      16.0000   1.28667e-08
      16.1000   9.27299e-09
      16.2000   6.79275e-09
      16.3000   4.96230e-09
      16.4000   3.58062e-09
      16.5000   2.55238e-09
      16.6000   1.83234e-09
      16.7000   1.32710e-09
      16.8000   9.45922e-10
      16.9000   6.63985e-10
      17.0000   4.71069e-10
      17.1000   3.36859e-10
      17.2000   2.36176e-10
      17.3000   1.62607e-10
      17.4000   1.15773e-10
      17.5000   8.19061e-11
      17.6000   5.69353e-11
      17.7000   3.97073e-11
      17.8000   2.86248e-11
      17.9000   2.01505e-11
      18.0000   1.38556e-11
      18.1000   9.91217e-12
      18.2000   6.90688e-12
      18.3000   4.65544e-12
      18.4000   3.21081e-12
      18.5000   2.18220e-12
      18.6000   1.41982e-12
      18.7000   9.40429e-13
      18.8000   6.21478e-13
      18.9000   3.92007e-13
      19.0000   2.56773e-13
      19.1000   1.67667e-13
      19.2000   1.04136e-13
      19.3000   6.85411e-14
      19.4000   4.42775e-14
      19.5000   2.71658e-14
      19.6000   1.81812e-14
      19.7000   1.15949e-14
      19.8000   7.11531e-15
      19.9000   4.78977e-15
      20.0000   2.98946e-15
      20.1000   1.89517e-15
      20.2000   1.23124e-15
      20.3000   7.42655e-16
      20.4000   4.86677e-16
      20.5000   3.02756e-16
      20.6000   1.82444e-16
      20.7000   1.19194e-16
      20.8000   7.05987e-17
      20.9000   4.50317e-17
      21.0000   2.75840e-17
      21.1000   1.61736e-17
      21.2000   1.04391e-17
      21.3000   5.99214e-18
      21.4000   3.80988e-18
      21.5000   2.25605e-18
      21.6000   1.33231e-18
      21.7000   8.26008e-19
      21.8000   4.52137e-19
      21.9000   2.94227e-19
      22.0000   1.65174e-19
      22.1000   1.01656e-19
      22.2000   5.88146e-20
      22.3000   3.37552e-20
      22.4000   2.01849e-20
      22.5000   1.03137e-20
      22.6000   6.20448e-21
      22.7000   2.92036e-21
      22.8000   2.48735e-21
      22.9000   2.04404e-21
      23.0000   1.57546e-21
      23.1000   1.13157e-21
      23.2000   7.11926e-22
      23.3000   4.43514e-22
      23.4000   2.49421e-22
      23.5000   1.53332e-22
      23.6000   8.13961e-23
      23.7000   5.17794e-23
      23.8000   2.62877e-23
      23.9000   1.70550e-23
      24.0000   8.67431e-24
      24.1000   5.51015e-24
      24.2000   2.80128e-24
      24.3000   1.74735e-24
      24.4000   8.89779e-25
      24.5000   5.46894e-25
      24.6000   2.78989e-25
      24.7000   1.69394e-25
      24.8000   8.63018e-26
      24.9000   5.21260e-26
      25.0000   2.65760e-26
      25.1000   1.59698e-26
      25.2000   8.06231e-27
      25.3000   4.85031e-27
      25.4000   2.42231e-27
      25.5000   1.46135e-27
      25.6000   7.15306e-28
      25.7000   4.34746e-28
      25.8000   2.07763e-28
      25.9000   1.27620e-28
      26.0000   5.92063e-29
      26.1000   3.68802e-29
      26.2000   1.65424e-29
      26.3000   1.04772e-29
      26.4000   4.52577e-30
      26.5000   2.92045e-30
      26.6000   1.33373e-30
      26.7000   7.97268e-31
      26.8000   3.88623e-31
      26.9000   2.12916e-31
      27.0000   1.10474e-31
      27.1000   5.55279e-32
      27.2000   3.05355e-32
      27.3000   1.41185e-32
      27.4000   8.21790e-33
      27.5000   3.53091e-33
      27.6000   2.15401e-33
      27.7000   8.52582e-34
      27.8000   5.43327e-34
      27.9000   2.37792e-34
      28.0000   1.32237e-34
      28.1000   6.60252e-35
      28.2000   3.13072e-35
      28.3000   1.74274e-35
      28.4000   7.38933e-36
      28.5000   4.44907e-36
      28.6000   1.70456e-36
      28.7000   1.10517e-36
      28.8000   5.13245e-37
      28.9000   2.80369e-37
      29.0000   1.50209e-37
      29.1000   6.84347e-38
      29.2000   4.05961e-38
      29.3000   1.60940e-38
      29.4000   1.03033e-38
      29.5000   4.58678e-39
      29.6000   2.47798e-39
      29.7000   1.32274e-39
      29.8000   5.67934e-40
      29.9000   3.41184e-40
      30.0000   1.24479e-40
      30.1000   8.12739e-41
      30.2000   3.86366e-41
      30.3000   1.83388e-41
      30.4000   1.07325e-41
      30.5000   4.45753e-42
      30.6000   2.82081e-42
      30.7000   1.20512e-42
      30.8000   6.13769e-43
      30.9000   3.32108e-43
      31.0000   1.24716e-43
      31.1000   7.70714e-44
      31.2000   3.22299e-44
      31.3000   1.54143e-44
      31.4000   9.80909e-45
      31.5000   2.80260e-45
      31.6000   2.80260e-45
      31.7000  -2.80260e-45
      31.8000       0.00000
      31.9000       0.00000
      32.0000       0.00000
      32.1000       0.00000
      32.2000       0.00000
      32.3000       0.00000
      32.4000       0.00000
      32.5000       0.00000
      32.6000       0.00000
      32.7000       0.00000
      32.8000       0.00000
      32.9000       0.00000
      33.0000       0.00000
      33.1000       0.00000
      33.2000       0.00000
      33.3000       0.00000
      33.4000       0.00000
      33.5000       0.00000
      33.6000       0.00000
      33.7000       0.00000
      33.8000       0.00000
      33.9000       0.00000
      34.0000       0.00000
      34.1000       0.00000
      34.2000       0.00000
      34.3000       0.00000
      34.4000       0.00000
      34.5000       0.00000
      34.6000       0.00000
      34.7000       0.00000
      34.8000       0.00000
      34.9000       0.00000
      35.0000       0.00000
      35.1000       0.00000
      35.2000       0.00000
      35.3000       0.00000
      35.4000       0.00000
      35.5000       0.00000
      35.6000       0.00000
      35.7000       0.00000
      35.8000       0.00000
      35.9000       0.00000
      36.0000       0.00000
      36.1000       0.00000
      36.2000       0.00000
      36.3000       0.00000
      36.4000       0.00000
      36.5000       0.00000
      36.6000       0.00000
      36.7000       0.00000
      36.8000       0.00000
      36.9000       0.00000
      37.0000       0.00000
      37.1000       0.00000
      37.2000       0.00000
      37.3000       0.00000
      37.4000       0.00000
      37.5000       0.00000
      37.6000       0.00000
      37.7000       0.00000
      37.8000       0.00000
      37.9000       0.00000
      38.0000       0.00000
      38.1000       0.00000
      38.2000       0.00000
      38.3000       0.00000
      38.4000       0.00000
      38.5000       0.00000
      38.6000       0.00000
      38.7000       0.00000
      38.8000       0.00000
      38.9000       0.00000
      39.0000       0.00000
      39.1000       0.00000
      39.2000       0.00000
      39.3000       0.00000
      39.4000       0.00000
      39.5000       0.00000
      39.6000       0.00000
      39.7000       0.00000
      39.8000       0.00000
      39.9000       0.00000
      40.0000       0.00000
      40.1000       0.00000
      40.2000       0.00000
      40.3000       0.00000
      40.4000       0.00000
      40.5000       0.00000
      40.6000       0.00000
      40.7000       0.00000
      40.8000       0.00000
      40.9000       0.00000
      41.0000       0.00000
      41.1000       0.00000
      41.2000       0.00000
      41.3000       0.00000
      41.4000       0.00000
      41.5000       0.00000
      41.6000       0.00000
      41.7000       0.00000
      41.8000       0.00000
      41.9000       0.00000
      42.0000       0.00000
      42.1000       0.00000
      42.2000       0.00000
      42.3000       0.00000
      42.4000       0.00000
      42.5000       0.00000
      42.6000       0.00000
      42.7000       0.00000
      42.8000       0.00000
      42.9000       0.00000
      43.0000       0.00000
      43.1000       0.00000
      43.2000       0.00000
      43.3000       0.00000
      43.4000       0.00000
      43.5000       0.00000
      43.6000       0.00000
      43.7000       0.00000
      43.8000       0.00000
      43.9000       0.00000
      44.0000       0.00000
      44.1000       0.00000
      44.2000       0.00000
      44.3000       0.00000
      44.4000       0.00000
      44.5000       0.00000
      44.6000       0.00000
      44.7000       0.00000
      44.8000       0.00000
      44.9000       0.00000
      45.0000       0.00000
      45.1000       0.00000
      45.2000       0.00000
      45.3000       0.00000
      45.4000       0.00000
      45.5000       0.00000
      45.6000       0.00000
      45.7000       0.00000
      45.8000       0.00000
      45.9000       0.00000
      46.0000       0.00000
      46.1000       0.00000
      46.2000       0.00000
      46.3000       0.00000
      46.4000       0.00000
      46.5000       0.00000
      46.6000       0.00000
      46.7000       0.00000
      46.8000       0.00000
      46.9000       0.00000
      47.0000       0.00000
      47.1000       0.00000
      47.2000       0.00000
      47.3000       0.00000
      47.4000       0.00000
      47.5000       0.00000
      47.6000       0.00000
      47.7000       0.00000
      47.8000       0.00000
      47.9000       0.00000
      48.0000       0.00000
      48.1000       0.00000
      48.2000       0.00000
      48.3000       0.00000
      48.4000       0.00000
      48.5000       0.00000
      48.6000       0.00000
      48.7000       0.00000
      48.8000       0.00000
      48.9000       0.00000
      49.0000       0.00000
      49.1000       0.00000
      49.2000       0.00000
      49.3000       0.00000
      49.4000       0.00000
      49.5000       0.00000
      49.6000       0.00000
      49.7000       0.00000
      49.8000       0.00000
      49.9000       0.00000
      50.0000       0.00000
      50.1000       0.00000
      50.2000       0.00000
      50.3000       0.00000
      50.4000       0.00000
      50.5000       0.00000
      50.6000       0.00000
      50.7000       0.00000
      50.8000       0.00000
      50.9000       0.00000
      51.0000       0.00000
      51.1000       0.00000
      51.2000       0.00000
      51.3000       0.00000
      51.4000       0.00000
      51.5000       0.00000
      51.6000       0.00000
      51.7000       0.00000
      51.8000       0.00000
      51.9000       0.00000
      52.0000       0.00000
      52.1000       0.00000
      52.2000       0.00000
      52.3000       0.00000
      52.4000       0.00000
      52.5000       0.00000
      52.6000       0.00000
      52.7000       0.00000
      52.8000       0.00000
      52.9000       0.00000
      53.0000       0.00000
      53.1000       0.00000
      53.2000       0.00000
      53.3000       0.00000
      53.4000       0.00000
      53.5000       0.00000
      53.6000       0.00000
      53.7000       0.00000
      53.8000       0.00000
      53.9000       0.00000
      54.0000       0.00000
      54.1000       0.00000
      54.2000       0.00000
      54.3000       0.00000
      54.4000       0.00000
      54.5000       0.00000
      54.6000       0.00000
      54.7000       0.00000
      54.8000       0.00000
      54.9000       0.00000
      55.0000       0.00000
      55.1000       0.00000
      55.2000       0.00000
      55.3000       0.00000
      55.4000       0.00000
      55.5000       0.00000
      55.6000       0.00000
      55.7000       0.00000
      55.8000       0.00000
      55.9000       0.00000
      56.0000       0.00000
      56.1000       0.00000
      56.2000       0.00000
      56.3000       0.00000
      56.4000       0.00000
      56.5000       0.00000
      56.6000       0.00000
      56.7000       0.00000
      56.8000       0.00000
      56.9000       0.00000
      57.0000       0.00000
      57.1000       0.00000
      57.2000       0.00000
      57.3000       0.00000
      57.4000       0.00000
      57.5000       0.00000
      57.6000       0.00000
      57.7000       0.00000
      57.8000       0.00000
      57.9000       0.00000
      58.0000       0.00000
      58.1000       0.00000
      58.2000       0.00000
      58.3000       0.00000
      58.4000       0.00000
      58.5000       0.00000
      58.6000       0.00000
      58.7000       0.00000
      58.8000       0.00000
      58.9000       0.00000
      59.0000       0.00000
      59.1000       0.00000
      59.2000       0.00000
      59.3000       0.00000
      59.4000       0.00000
      59.5000       0.00000
      59.6000       0.00000
      59.7000       0.00000
      59.8000       0.00000
      59.9000       0.00000
      60.0000       0.00000
      60.1000       0.00000
      60.2000       0.00000
      60.3000       0.00000
      60.4000       0.00000
      60.5000       0.00000
      60.6000       0.00000
      60.7000       0.00000
      60.8000       0.00000
      60.9000       0.00000
      61.0000       0.00000
      61.1000       0.00000
      61.2000       0.00000
      61.3000       0.00000
      61.4000       0.00000
      61.5000       0.00000
      61.6000       0.00000
      61.7000       0.00000
      61.8000       0.00000
      61.9000       0.00000
      62.0000       0.00000
      62.1000       0.00000
      62.2000       0.00000
      62.3000       0.00000
      62.4000       0.00000
      62.5000       0.00000
      62.6000       0.00000
      62.7000       0.00000
      62.8000       0.00000
      62.9000       0.00000
      63.0000       0.00000
      63.1000       0.00000
      63.2000       0.00000
      63.3000       0.00000
      63.4000       0.00000
      63.5000       0.00000
      63.6000       0.00000
      63.7000       0.00000
      63.8000       0.00000
      63.9000       0.00000
      64.0000       0.00000
      64.1000       0.00000
      64.2000       0.00000
      64.3000       0.00000
      64.4000       0.00000
      64.5000       0.00000
      64.6000       0.00000
      64.7000       0.00000
      64.8000       0.00000
      64.9000       0.00000
      65.0000       0.00000
      65.1000       0.00000
      65.2000       0.00000
      65.3000       0.00000
      65.4000       0.00000
      65.5000       0.00000
      65.6000       0.00000
      65.7000       0.00000
      65.8000       0.00000
      65.9000       0.00000
      66.0000       0.00000
      66.1000       0.00000
      66.2000       0.00000
      66.3000       0.00000
      66.4000       0.00000
      66.5000       0.00000
      66.6000       0.00000
      66.7000       0.00000
      66.8000       0.00000
      66.9000       0.00000
      67.0000       0.00000
      67.1000       0.00000
      67.2000       0.00000
      67.3000       0.00000
      67.4000       0.00000
      67.5000       0.00000
      67.6000       0.00000
      67.7000       0.00000
      67.8000       0.00000
      67.9000       0.00000
      68.0000       0.00000
      68.1000       0.00000
      68.2000       0.00000
      68.3000       0.00000
      68.4000       0.00000
      68.5000       0.00000
      68.6000       0.00000
      68.7000       0.00000
      68.8000       0.00000
      68.9000       0.00000
      69.0000       0.00000
      69.1000       0.00000
      69.2000       0.00000
      69.3000       0.00000
      69.4000       0.00000
      69.5000       0.00000
      69.6000       0.00000
      69.7000       0.00000
      69.8000       0.00000
      69.9000       0.00000
      70.0000       0.00000
      70.1000       0.00000
      70.2000       0.00000
      70.3000       0.00000
      70.4000       0.00000
      70.5000       0.00000
      70.6000       0.00000
      70.7000       0.00000
      70.8000       0.00000
      70.9000       0.00000
      71.0000       0.00000
      71.1000       0.00000
      71.2000       0.00000
      71.3000       0.00000
      71.4000       0.00000
      71.5000       0.00000
      71.6000       0.00000
      71.7000       0.00000
      71.8000       0.00000
      71.9000       0.00000
      72.0000       0.00000
