Filter C-poly
observation_date 22-Sept-2010 22:40:45
wavelength effective area 
      1.00000   2.78572e-10
      1.10000   7.95348e-10
      1.20000   2.06793e-09
      1.30000   4.94572e-09
      1.40000   1.12245e-08
      1.50000   2.39520e-08
      1.60000   4.85013e-08
      1.70000   9.41874e-08
      1.80000   1.75411e-07
      1.90000   3.15386e-07
      2.00000   5.48524e-07
      2.10000   9.26907e-07
      2.20000   1.52914e-06
      2.30000   2.45943e-06
      2.40000   3.86343e-06
      2.50000   5.90805e-06
      2.60000   9.02233e-06
      2.70000   1.34612e-05
      2.80000   1.97008e-05
      2.90000   2.85379e-05
      3.00000   4.06961e-05
      3.10000   5.72913e-05
      3.20000   7.97781e-05
      3.30000   0.000109968
      3.40000   0.000150010
      3.50000   0.000202666
      3.60000   0.000272563
      3.70000   0.000362694
      3.80000   0.000480664
      3.90000   0.000633513
      4.00000   0.000829825
      4.10000    0.00108200
      4.20000    0.00140587
      4.30000    0.00182163
      4.40000    0.00235420
      4.50000    0.00303432
      4.60000    0.00389805
      4.70000    0.00500785
      4.80000    0.00642757
      4.90000    0.00814410
      5.00000     0.0105918
      5.10000     0.0135816
      5.20000     0.0174687
      5.30000     0.0222792
      5.40000     0.0283715
      5.50000     0.0361956
      5.60000     0.0447632
      5.70000     0.0583256
      5.80000     0.0685492
      5.90000      0.104929
      6.00000      0.141416
      6.10000      0.181220
      6.20000      0.223134
      6.30000      0.263371
      6.40000      0.298208
      6.50000      0.324242
      6.60000      0.336621
      6.70000      0.348190
      6.80000      0.349726
      6.90000      0.460265
      7.00000      0.502151
      7.10000      0.532816
      7.20000      0.557719
      7.30000      0.578525
      7.40000      0.595011
      7.50000      0.608668
      7.60000      0.619596
      7.70000      0.626124
      7.80000      0.626979
      7.90000      0.628630
      8.00000      0.912420
      8.10000       1.00236
      8.20000       1.02236
      8.30000       1.03785
      8.40000       1.04940
      8.50000       1.05938
      8.60000       1.06746
      8.70000       1.07432
      8.80000       1.07962
      8.90000       1.08388
      9.00000       1.08701
      9.10000       1.08905
      9.20000       1.09020
      9.30000       1.09037
      9.40000       1.08970
      9.50000       1.08827
      9.60000       1.08598
      9.70000       1.08297
      9.80000       1.07939
      9.90000       1.07525
      10.0000       1.07062
      10.1000       1.06552
      10.2000       1.05996
      10.3000       1.05388
      10.4000       1.04732
      10.5000       1.04029
      10.6000       1.03285
      10.7000       1.02500
      10.8000       1.01676
      10.9000       1.00815
      11.0000      0.999194
      11.1000      0.989923
      11.2000      0.980338
      11.3000      0.970479
      11.4000      0.960335
      11.5000      0.949898
      11.6000      0.939189
      11.7000      0.928126
      11.8000      0.916811
      11.9000      0.905100
      12.0000      0.892052
      12.1000      0.882141
      12.2000      0.887628
      12.3000      0.883779
      12.4000      0.873351
      12.5000      0.862265
      12.6000      0.850863
      12.7000      0.839280
      12.8000      0.827564
      12.9000      0.815729
      13.0000      0.803825
      13.1000      0.791883
      13.2000      0.779927
      13.3000      0.767973
      13.4000      0.756045
      13.5000      0.744276
      13.6000      0.732646
      13.7000      0.721060
      13.8000      0.709512
      13.9000      0.698033
      14.0000      0.686620
      14.1000      0.675251
      14.2000      0.663928
      14.3000      0.652648
      14.4000      0.641393
      14.5000      0.630177
      14.6000      0.618995
      14.7000      0.607851
      14.8000      0.596751
      14.9000      0.585702
      15.0000      0.574712
      15.1000      0.563793
      15.2000      0.552963
      15.3000      0.542215
      15.4000      0.531550
      15.5000      0.520974
      15.6000      0.510522
      15.7000      0.500172
      15.8000      0.489966
      15.9000      0.479885
      16.0000      0.469927
      16.1000      0.460099
      16.2000      0.450431
      16.3000      0.440882
      16.4000      0.431443
      16.5000      0.422112
      16.6000      0.412896
      16.7000      0.403800
      16.8000      0.394805
      16.9000      0.385910
      17.0000      0.377136
      17.1000      0.368480
      17.2000      0.359920
      17.3000      0.351471
      17.4000      0.343300
      17.5000      0.335387
      17.6000      0.327699
      17.7000      0.320269
      17.8000      0.313247
      17.9000      0.306332
      18.0000      0.299471
      18.1000      0.292710
      18.2000      0.285982
      18.3000      0.279276
      18.4000      0.272572
      18.5000      0.265889
      18.6000      0.259214
      18.7000      0.252521
      18.8000      0.245936
      18.9000      0.239433
      19.0000      0.233044
      19.1000      0.226780
      19.2000      0.220609
      19.3000      0.214580
      19.4000      0.208678
      19.5000      0.202874
      19.6000      0.197245
      19.7000      0.191718
      19.8000      0.186285
      19.9000      0.181014
      20.0000      0.175820
      20.1000      0.170730
      20.2000      0.165747
      20.3000      0.160831
      20.4000      0.156042
      20.5000      0.151326
      20.6000      0.146678
      20.7000      0.142153
      20.8000      0.137683
      20.9000      0.133304
      21.0000      0.129009
      21.1000      0.124786
      21.2000      0.120645
      21.3000      0.116551
      21.4000      0.112566
      21.5000      0.108623
      21.6000      0.104719
      21.7000      0.100890
      21.8000     0.0970929
      21.9000     0.0932798
      22.0000     0.0894812
      22.1000     0.0856926
      22.2000     0.0817732
      22.3000     0.0777434
      22.4000     0.0725735
      22.5000     0.0670621
      22.6000     0.0567325
      22.7000     0.0506504
      22.8000     0.0662103
      22.9000     0.0853911
      23.0000      0.107660
      23.1000      0.121511
      23.2000      0.127399
      23.3000      0.127706
      23.4000      0.125217
      23.5000      0.122604
      23.6000      0.119970
      23.7000      0.117069
      23.8000      0.114160
      23.9000      0.111280
      24.0000      0.108409
      24.1000      0.105531
      24.2000      0.102678
      24.3000     0.0998867
      24.4000     0.0971201
      24.5000     0.0944008
      24.6000     0.0917189
      24.7000     0.0891046
      24.8000     0.0865275
      24.9000     0.0840105
      25.0000     0.0815359
      25.1000     0.0791284
      25.2000     0.0767609
      25.3000     0.0744567
      25.4000     0.0721950
      25.5000     0.0700055
      25.6000     0.0678594
      25.7000     0.0657970
      25.8000     0.0637658
      25.9000     0.0618065
      26.0000     0.0598716
      26.1000     0.0580103
      26.2000     0.0561664
      26.3000     0.0544030
      26.4000     0.0526485
      26.5000     0.0509761
      26.6000     0.0493116
      26.7000     0.0477236
      26.8000     0.0461533
      26.9000     0.0446421
      27.0000     0.0431539
      27.1000     0.0417068
      27.2000     0.0402884
      27.3000     0.0389917
      27.4000     0.0378445
      27.5000     0.0366848
      27.6000     0.0354798
      27.7000     0.0342826
      27.8000     0.0331269
      27.9000     0.0319767
      28.0000     0.0308838
      28.1000     0.0298062
      28.2000     0.0287698
      28.3000     0.0277624
      28.4000     0.0267797
      28.5000     0.0258398
      28.6000     0.0249084
      28.7000     0.0240362
      28.8000     0.0231682
      28.9000     0.0223445
      29.0000     0.0215361
      29.1000     0.0207545
      29.2000     0.0200025
      29.3000     0.0192607
      29.4000     0.0185627
      29.5000     0.0178681
      29.6000     0.0172118
      29.7000     0.0165679
      29.8000     0.0159451
      29.9000     0.0153494
      30.0000     0.0147582
      30.1000     0.0142078
      30.2000     0.0136601
      30.3000     0.0137502
      30.4000     0.0142034
      30.5000     0.0144451
      30.6000     0.0139093
      30.7000     0.0133760
      30.8000     0.0128736
      30.9000     0.0123821
      31.0000     0.0119036
      31.1000     0.0114512
      31.2000     0.0110011
      31.3000     0.0105799
      31.4000     0.0101664
      31.5000    0.00976481
      31.6000    0.00938569
      31.7000    0.00900849
      31.8000    0.00865582
      31.9000    0.00831062
      32.0000    0.00797394
      32.1000    0.00765860
      32.2000    0.00734486
      32.3000    0.00705006
      32.4000    0.00676439
      32.5000    0.00648359
      32.6000    0.00623168
      32.7000    0.00598112
      32.8000    0.00574208
      32.9000    0.00551416
      33.0000    0.00528741
      33.1000    0.00508741
      33.2000    0.00489196
      33.3000    0.00470112
      33.4000    0.00452281
      33.5000    0.00434545
      33.6000    0.00417711
      33.7000    0.00401569
      33.8000    0.00385507
      33.9000    0.00370676
      34.0000    0.00356077
      34.1000    0.00341803
      34.2000    0.00328578
      34.3000    0.00315414
      34.4000    0.00302798
      34.5000    0.00290870
      34.6000    0.00278997
      34.7000    0.00267811
      34.8000    0.00256971
      34.9000    0.00246182
      35.0000    0.00236316
      35.1000    0.00226587
      35.2000    0.00216998
      35.3000    0.00208241
      35.4000    0.00199524
      35.5000    0.00191080
      35.6000    0.00183250
      35.7000    0.00175456
      35.8000    0.00168026
      35.9000    0.00161040
      36.0000    0.00154086
      36.1000    0.00147553
      36.2000    0.00141332
      36.3000    0.00135141
      36.4000    0.00129398
      36.5000    0.00123869
      36.6000    0.00118367
      36.7000    0.00113320
      36.8000    0.00108419
      36.9000    0.00103541
      37.0000   0.000991055
      37.1000   0.000947701
      37.2000   0.000904549
      37.3000   0.000865572
      37.4000   0.000827307
      37.5000   0.000789225
      37.6000   0.000754962
      37.7000   0.000721266
      37.8000   0.000687731
      37.9000   0.000657599
      38.0000   0.000627999
      38.1000   0.000598540
      38.2000   0.000572017
      38.3000   0.000546068
      38.4000   0.000520243
      38.5000   0.000496881
      38.6000   0.000474191
      38.7000   0.000451610
      38.8000   0.000431015
      38.9000   0.000411224
      39.0000   0.000391526
      39.1000   0.000373356
      39.2000   0.000356137
      39.3000   0.000339000
      39.4000   0.000322951
      39.5000   0.000308007
      39.6000   0.000293136
      39.7000   0.000278947
      39.8000   0.000266014
      39.9000   0.000253143
      40.0000   0.000240589
      40.1000   0.000229425
      40.2000   0.000218315
      40.3000   0.000207259
      40.4000   0.000197584
      40.5000   0.000188018
      40.6000   0.000178498
      40.7000   0.000169906
      40.8000   0.000161689
      40.9000   0.000153512
      41.0000   0.000145873
      41.1000   0.000138836
      41.2000   0.000131833
      41.3000   0.000125039
      41.4000   0.000119035
      41.5000   0.000113060
      41.6000   0.000107114
      41.7000   0.000101901
      41.8000   9.68132e-05
      41.9000   9.17498e-05
      42.0000   8.70906e-05
      42.1000   8.27730e-05
      42.2000   7.84759e-05
      42.3000   7.43068e-05
      42.4000   7.06521e-05
      42.5000   6.70147e-05
      42.6000   6.33947e-05
      42.7000   6.02000e-05
      42.8000   5.71295e-05
      42.9000   5.40734e-05
      43.0000   5.11980e-05
      43.1000   4.86146e-05
      43.2000   4.60437e-05
      43.3000   4.34850e-05
      43.4000     0.0437655
      43.5000     0.0941266
      43.6000      0.152234
      43.7000      0.194780
      43.8000      0.206435
      43.9000      0.207297
      44.0000      0.204219
      44.1000      0.197402
      44.2000      0.194733
      44.3000      0.192431
      44.4000      0.190156
      44.5000      0.187913
      44.6000      0.185677
      44.7000      0.183446
      44.8000      0.181265
      44.9000      0.179095
      45.0000      0.176931
      45.1000      0.174787
      45.2000      0.172681
      45.3000      0.170581
      45.4000      0.168486
      45.5000      0.166430
      45.6000      0.164395
      45.7000      0.162365
      45.8000      0.160341
      45.9000      0.158370
      46.0000      0.156402
      46.1000      0.154440
      46.2000      0.152569
      46.3000      0.150852
      46.4000      0.149139
      46.5000      0.147431
      46.6000      0.145778
      46.7000      0.144155
      46.8000      0.142536
      46.9000      0.140921
      47.0000      0.139384
      47.1000      0.137855
      47.2000      0.136330
      47.3000      0.134816
      47.4000      0.133342
      47.5000      0.131872
      47.6000      0.130405
      47.7000      0.128956
      47.8000      0.127531
      47.9000      0.126109
      48.0000      0.124691
      48.1000      0.123296
      48.2000      0.121920
      48.3000      0.120547
      48.4000      0.119177
      48.5000      0.117835
      48.6000      0.116504
      48.7000      0.115177
      48.8000      0.113853
      48.9000      0.112561
      49.0000      0.111278
      49.1000      0.109998
      49.2000      0.108721
      49.3000      0.107479
      49.4000      0.106242
      49.5000      0.105007
      49.6000      0.103776
      49.7000      0.102580
      49.8000      0.101388
      49.9000      0.100198
      50.0000     0.0990125
      50.1000     0.0978647
      50.2000     0.0967778
      50.3000     0.0956997
      50.4000     0.0946322
      50.5000     0.0935741
      50.6000     0.0925263
      50.7000     0.0914899
      50.8000     0.0904617
      50.9000     0.0894450
      51.0000     0.0884467
      51.1000     0.0874613
      51.2000     0.0864847
      51.3000     0.0855177
      51.4000     0.0845615
      51.5000     0.0836124
      51.6000     0.0826716
      51.7000     0.0817394
      51.8000     0.0808085
      51.9000     0.0798858
      52.0000     0.0789716
      52.1000     0.0780662
      52.2000     0.0771697
      52.3000     0.0762806
      52.4000     0.0754004
      52.5000     0.0745289
      52.6000     0.0736646
      52.7000     0.0728071
      52.8000     0.0719571
      52.9000     0.0711153
      53.0000     0.0702820
      53.1000     0.0694564
      53.2000     0.0686403
      53.3000     0.0678324
      53.4000     0.0670318
      53.5000     0.0662382
      53.6000     0.0654516
      53.7000     0.0646724
      53.8000     0.0639023
      53.9000     0.0631398
      54.0000     0.0623854
      54.1000     0.0616398
      54.2000     0.0609000
      54.3000     0.0601674
      54.4000     0.0594421
      54.5000     0.0587238
      54.6000     0.0580139
      54.7000     0.0573112
      54.8000     0.0566161
      54.9000     0.0559281
      55.0000     0.0552470
      55.1000     0.0545718
      55.2000     0.0538785
      55.3000     0.0531702
      55.4000     0.0524691
      55.5000     0.0517758
      55.6000     0.0510901
      55.7000     0.0504124
      55.8000     0.0497418
      55.9000     0.0490778
      56.0000     0.0484287
      56.1000     0.0477754
      56.2000     0.0471193
      56.3000     0.0464704
      56.4000     0.0458291
      56.5000     0.0451944
      56.6000     0.0445667
      56.7000     0.0439470
      56.8000     0.0433342
      56.9000     0.0427305
      57.0000     0.0421331
      57.1000     0.0415419
      57.2000     0.0409564
      57.3000     0.0403778
      57.4000     0.0398057
      57.5000     0.0392408
      57.6000     0.0386824
      57.7000     0.0381305
      57.8000     0.0375863
      57.9000     0.0370494
      58.0000     0.0365185
      58.1000     0.0359929
      58.2000     0.0354742
      58.3000     0.0349618
      58.4000     0.0344556
      58.5000     0.0339554
      58.6000     0.0334620
      58.7000     0.0329744
      58.8000     0.0324931
      58.9000     0.0320173
      59.0000     0.0315474
      59.1000     0.0310830
      59.2000     0.0306247
      59.3000     0.0301722
      59.4000     0.0297258
      59.5000     0.0292849
      59.6000     0.0288498
      59.7000     0.0284196
      59.8000     0.0279949
      59.9000     0.0275754
      60.0000     0.0271617
      60.1000     0.0267529
      60.2000     0.0263499
      60.3000     0.0259522
      60.4000     0.0255597
      60.5000     0.0251726
      60.6000     0.0247900
      60.7000     0.0244115
      60.8000     0.0240377
      60.9000     0.0236689
      61.0000     0.0233049
      61.1000     0.0229462
      61.2000     0.0225920
      61.3000     0.0222430
      61.4000     0.0218984
      61.5000     0.0215584
      61.6000     0.0212224
      61.7000     0.0208908
      61.8000     0.0205646
      61.9000     0.0202436
      62.0000     0.0199270
      62.1000     0.0196147
      62.2000     0.0193070
      62.3000     0.0190032
      62.4000     0.0187039
      62.5000     0.0184083
      62.6000     0.0181166
      62.7000     0.0178285
      62.8000     0.0175460
      62.9000     0.0172673
      63.0000     0.0169927
      63.1000     0.0167220
      63.2000     0.0164549
      63.3000     0.0161914
      63.4000     0.0159311
      63.5000     0.0156751
      63.6000     0.0154224
      63.7000     0.0151733
      63.8000     0.0149279
      63.9000     0.0146862
      64.0000     0.0144481
      64.1000     0.0142132
      64.2000     0.0139822
      64.3000     0.0137543
      64.4000     0.0135294
      64.5000     0.0133076
      64.6000     0.0130888
      64.7000     0.0128733
      64.8000     0.0126608
      64.9000     0.0124515
      65.0000     0.0122452
      65.1000     0.0120422
      65.2000     0.0118424
      65.3000     0.0116451
      65.4000     0.0114510
      65.5000     0.0112595
      65.6000     0.0110706
      65.7000     0.0108845
      65.8000     0.0107014
      65.9000     0.0105214
      66.0000     0.0103440
      66.1000     0.0101695
      66.2000    0.00999758
      66.3000    0.00982816
      66.4000    0.00966137
      66.5000    0.00949683
      66.6000    0.00933478
      66.7000    0.00917525
      66.8000    0.00901812
      66.9000    0.00886668
      67.0000    0.00872037
      67.1000    0.00857688
      67.2000    0.00843572
      67.3000    0.00829649
      67.4000    0.00815941
      67.5000    0.00802423
      67.6000    0.00789096
      67.7000    0.00775969
      67.8000    0.00762998
      67.9000    0.00750192
      68.0000    0.00737654
      68.1000    0.00725374
      68.2000    0.00713279
      68.3000    0.00701358
      68.4000    0.00689631
      68.5000    0.00678093
      68.6000    0.00666707
      68.7000    0.00655495
      68.8000    0.00644448
      68.9000    0.00633726
      69.0000    0.00624076
      69.1000    0.00615389
      69.2000    0.00606969
      69.3000    0.00598788
      69.4000    0.00590921
      69.5000    0.00582884
      69.6000    0.00574579
      69.7000    0.00566601
      69.8000    0.00559030
      69.9000    0.00551565
      70.0000    0.00544170
      70.1000    0.00536719
      70.2000    0.00529636
      70.3000    0.00522926
      70.4000    0.00516237
      70.5000    0.00509705
      70.6000    0.00503327
      70.7000    0.00497039
      70.8000    0.00490807
      70.9000    0.00484424
      71.0000    0.00477907
      71.1000    0.00471688
      71.2000    0.00465783
      71.3000    0.00459509
      71.4000    0.00452770
      71.5000    0.00446568
      71.6000    0.00441145
      71.7000    0.00435671
      71.8000    0.00430018
      71.9000    0.00424561
      72.0000    0.00419518
