Filter C-poly
observation_date 22Sept2020
wavelength effective area
      1.00000   2.78570e-10
      1.10000   7.95340e-10
      1.20000   2.06791e-09
      1.30000   4.94565e-09
      1.40000   1.12243e-08
      1.50000   2.39515e-08
      1.60000   4.85000e-08
      1.70000   9.41843e-08
      1.80000   1.75404e-07
      1.90000   3.15371e-07
      2.00000   5.48494e-07
      2.10000   9.26847e-07
      2.20000   1.52902e-06
      2.30000   2.45922e-06
      2.40000   3.86306e-06
      2.50000   5.90741e-06
      2.60000   9.02122e-06
      2.70000   1.34593e-05
      2.80000   1.96977e-05
      2.90000   2.85330e-05
      3.00000   4.06883e-05
      3.10000   5.72792e-05
      3.20000   7.97595e-05
      3.30000   0.000109939
      3.40000   0.000149968
      3.50000   0.000202604
      3.60000   0.000272472
      3.70000   0.000362563
      3.80000   0.000480476
      3.90000   0.000633246
      4.00000   0.000829447
      4.10000    0.00108147
      4.20000    0.00140513
      4.30000    0.00182060
      4.40000    0.00235277
      4.50000    0.00303236
      4.60000    0.00389536
      4.70000    0.00500418
      4.80000    0.00642256
      4.90000    0.00813735
      5.00000     0.0105825
      5.10000     0.0135689
      5.20000     0.0174515
      5.30000     0.0222560
      5.40000     0.0283403
      5.50000     0.0361535
      5.60000     0.0447084
      5.70000     0.0582504
      5.80000     0.0684562
      5.90000      0.104780
      6.00000      0.141204
      6.10000      0.180935
      6.20000      0.222766
      6.30000      0.262917
      6.40000      0.297670
      6.50000      0.323631
      6.60000      0.335957
      6.70000      0.347473
      6.80000      0.348975
      6.90000      0.459234
      7.00000      0.500978
      7.10000      0.531520
      7.20000      0.556306
      7.30000      0.577001
      7.40000      0.593382
      7.50000      0.606937
      7.60000      0.617766
      7.70000      0.624204
      7.80000      0.624984
      7.90000      0.626556
      8.00000      0.909299
      8.10000      0.998807
      8.20000       1.01861
      8.30000       1.03391
      8.40000       1.04528
      8.50000       1.05507
      8.60000       1.06298
      8.70000       1.06966
      8.80000       1.07479
      8.90000       1.07887
      9.00000       1.08182
      9.10000       1.08369
      9.20000       1.08467
      9.30000       1.08466
      9.40000       1.08383
      9.50000       1.08222
      9.60000       1.07977
      9.70000       1.07659
      9.80000       1.07284
      9.90000       1.06854
      10.0000       1.06375
      10.1000       1.05849
      10.2000       1.05278
      10.3000       1.04655
      10.4000       1.03983
      10.5000       1.03266
      10.6000       1.02506
      10.7000       1.01707
      10.8000       1.00869
      10.9000      0.999945
      11.0000      0.990854
      11.1000      0.981451
      11.2000      0.971738
      11.3000      0.961754
      11.4000      0.951488
      11.5000      0.940935
      11.6000      0.930113
      11.7000      0.918941
      11.8000      0.907523
      11.9000      0.895716
      12.0000      0.882590
      12.1000      0.872571
      12.2000      0.877782
      12.3000      0.873756
      12.4000      0.863226
      12.5000      0.852048
      12.6000      0.840560
      12.7000      0.828897
      12.8000      0.817105
      12.9000      0.805199
      13.0000      0.793229
      13.1000      0.781226
      13.2000      0.769213
      13.3000      0.757205
      13.4000      0.745229
      13.5000      0.733416
      13.6000      0.721744
      13.7000      0.710121
      13.8000      0.698539
      13.9000      0.687029
      14.0000      0.675588
      14.1000      0.664196
      14.2000      0.652853
      14.3000      0.641557
      14.4000      0.630290
      14.5000      0.619067
      14.6000      0.607880
      14.7000      0.596736
      14.8000      0.585641
      14.9000      0.574599
      15.0000      0.563621
      15.1000      0.552718
      15.2000      0.541907
      15.3000      0.531183
      15.4000      0.520545
      15.5000      0.510000
      15.6000      0.499582
      15.7000      0.489269
      15.8000      0.479104
      15.9000      0.469067
      16.0000      0.459156
      16.1000      0.449377
      16.2000      0.439762
      16.3000      0.430269
      16.4000      0.420889
      16.5000      0.411620
      16.6000      0.402469
      16.7000      0.393440
      16.8000      0.384516
      16.9000      0.375695
      17.0000      0.366997
      17.1000      0.358421
      17.2000      0.349944
      17.3000      0.341579
      17.4000      0.333493
      17.5000      0.325668
      17.6000      0.318066
      17.7000      0.310725
      17.8000      0.303789
      17.9000      0.296963
      18.0000      0.290191
      18.1000      0.283521
      18.2000      0.276888
      18.3000      0.270278
      18.4000      0.263673
      18.5000      0.257093
      18.6000      0.250524
      18.7000      0.243940
      18.8000      0.237466
      18.9000      0.231077
      19.0000      0.224802
      19.1000      0.218653
      19.2000      0.212599
      19.3000      0.206688
      19.4000      0.200904
      19.5000      0.195219
      19.6000      0.189708
      19.7000      0.184300
      19.8000      0.178987
      19.9000      0.173835
      20.0000      0.168761
      20.1000      0.163792
      20.2000      0.158929
      20.3000      0.154135
      20.4000      0.149467
      20.5000      0.144873
      20.6000      0.140349
      20.7000      0.135947
      20.8000      0.131601
      20.9000      0.127346
      21.0000      0.123176
      21.1000      0.119078
      21.2000      0.115062
      21.3000      0.111096
      21.4000      0.107237
      21.5000      0.103422
      21.6000     0.0996478
      21.7000     0.0959487
      21.8000     0.0922844
      21.9000     0.0886082
      22.0000     0.0849497
      22.1000     0.0813046
      22.2000     0.0775394
      22.3000     0.0736739
      22.4000     0.0687328
      22.5000     0.0634743
      22.6000     0.0536644
      22.7000     0.0479952
      22.8000     0.0632041
      22.9000     0.0819175
      23.0000      0.103282
      23.1000      0.116542
      23.2000      0.122092
      23.3000      0.122329
      23.4000      0.119889
      23.5000      0.117332
      23.6000      0.114756
      23.7000      0.111928
      23.8000      0.109094
      23.9000      0.106291
      24.0000      0.103498
      24.1000      0.100701
      24.2000     0.0979303
      24.3000     0.0952207
      24.4000     0.0925372
      24.5000     0.0899009
      24.6000     0.0873027
      24.7000     0.0847712
      24.8000     0.0822772
      24.9000     0.0798426
      25.0000     0.0774507
      25.1000     0.0751246
      25.2000     0.0728387
      25.3000     0.0706150
      25.4000     0.0684336
      25.5000     0.0663228
      25.6000     0.0642554
      25.7000     0.0622695
      25.8000     0.0603150
      25.9000     0.0584304
      26.0000     0.0565706
      26.1000     0.0547822
      26.2000     0.0530120
      26.3000     0.0513195
      26.4000     0.0496370
      26.5000     0.0480336
      26.6000     0.0464393
      26.7000     0.0449186
      26.8000     0.0434160
      26.9000     0.0419706
      27.0000     0.0405484
      27.1000     0.0391662
      27.2000     0.0378124
      27.3000     0.0365742
      27.4000     0.0354774
      27.5000     0.0343701
      27.6000     0.0332215
      27.7000     0.0320815
      27.8000     0.0309816
      27.9000     0.0298880
      28.0000     0.0288491
      28.1000     0.0278256
      28.2000     0.0268417
      28.3000     0.0258860
      28.4000     0.0249544
      28.5000     0.0240637
      28.6000     0.0231819
      28.7000     0.0223562
      28.8000     0.0215353
      28.9000     0.0207565
      29.0000     0.0199930
      29.1000     0.0192551
      29.2000     0.0185456
      29.3000     0.0178463
      29.4000     0.0171884
      29.5000     0.0165344
      29.6000     0.0159167
      29.7000     0.0153113
      29.8000     0.0147259
      29.9000     0.0141664
      30.0000     0.0136117
      30.1000     0.0130952
      30.2000     0.0125819
      30.3000     0.0126564
      30.4000     0.0130646
      30.5000     0.0132779
      30.6000     0.0127766
      30.7000     0.0122783
      30.8000     0.0118089
      30.9000     0.0113501
      31.0000     0.0109038
      31.1000     0.0104821
      31.2000     0.0100630
      31.3000    0.00967079
      31.4000    0.00928626
      31.5000    0.00891299
      31.6000    0.00856079
      31.7000    0.00821080
      31.8000    0.00788363
      31.9000    0.00756369
      32.0000    0.00725195
      32.1000    0.00696003
      32.2000    0.00666996
      32.3000    0.00639749
      32.4000    0.00613369
      32.5000    0.00587468
      32.6000    0.00564231
      32.7000    0.00541153
      32.8000    0.00519148
      32.9000    0.00498176
      33.0000    0.00477339
      33.1000    0.00458959
      33.2000    0.00441022
      33.3000    0.00423526
      33.4000    0.00407178
      33.5000    0.00390936
      33.6000    0.00375527
      33.7000    0.00360760
      33.8000    0.00346084
      33.9000    0.00332532
      34.0000    0.00319208
      34.1000    0.00306192
      34.2000    0.00294133
      34.3000    0.00282145
      34.4000    0.00270664
      34.5000    0.00259812
      34.6000    0.00249025
      34.7000    0.00238865
      34.8000    0.00229029
      34.9000    0.00219251
      35.0000    0.00210309
      35.1000    0.00201501
      35.2000    0.00192830
      35.3000    0.00184909
      35.4000    0.00177036
      35.5000    0.00169416
      35.6000    0.00162351
      35.7000    0.00155328
      35.8000    0.00148637
      35.9000    0.00142348
      36.0000    0.00136097
      36.1000    0.00130227
      36.2000    0.00124640
      36.3000    0.00119088
      36.4000    0.00113938
      36.5000    0.00108986
      36.6000    0.00104063
      36.7000   0.000995474
      36.8000   0.000951671
      36.9000   0.000908137
      37.0000   0.000868545
      37.1000   0.000829889
      37.2000   0.000791470
      37.3000   0.000756758
      37.4000   0.000722722
      37.5000   0.000688898
      37.6000   0.000658458
      37.7000   0.000628559
      37.8000   0.000598847
      37.9000   0.000572142
      38.0000   0.000545942
      38.1000   0.000519904
      38.2000   0.000496456
      38.3000   0.000473543
      38.4000   0.000450773
      38.5000   0.000430172
      38.6000   0.000410185
      38.7000   0.000390325
      38.8000   0.000372212
      38.9000   0.000354822
      39.0000   0.000337541
      39.1000   0.000321603
      39.2000   0.000306510
      39.3000   0.000291511
      39.4000   0.000277473
      39.5000   0.000264406
      39.6000   0.000251423
      39.7000   0.000239047
      39.8000   0.000227766
      39.9000   0.000216557
      40.0000   0.000205638
      40.1000   0.000195925
      40.2000   0.000186273
      40.3000   0.000176685
      40.4000   0.000168288
      40.5000   0.000159999
      40.6000   0.000151762
      40.7000   0.000144328
      40.8000   0.000137225
      40.9000   0.000130169
      41.0000   0.000123580
      41.1000   0.000117512
      41.2000   0.000111484
      41.3000   0.000105643
      41.4000   0.000100479
      41.5000   9.53480e-05
      41.6000   9.02506e-05
      41.7000   8.57797e-05
      41.8000   8.14216e-05
      41.9000   7.70920e-05
      42.0000   7.31092e-05
      42.1000   6.94202e-05
      42.2000   6.57550e-05
      42.3000   6.22035e-05
      42.4000   5.90887e-05
      42.5000   5.59939e-05
      42.6000   5.29194e-05
      42.7000   5.02051e-05
      42.8000   4.75993e-05
      42.9000   4.50101e-05
      43.0000   4.25760e-05
      43.1000   4.03890e-05
      43.2000   3.82164e-05
      43.3000   3.60580e-05
      43.4000     0.0362556
      43.5000     0.0802530
      43.6000      0.136264
      43.7000      0.185015
      43.8000      0.205680
      43.9000      0.208726
      44.0000      0.205181
      44.1000      0.195374
      44.2000      0.192478
      44.3000      0.190187
      44.4000      0.187924
      44.5000      0.185693
      44.6000      0.183468
      44.7000      0.181249
      44.8000      0.179080
      44.9000      0.176922
      45.0000      0.174770
      45.1000      0.172637
      45.2000      0.170544
      45.3000      0.168456
      45.4000      0.166373
      45.5000      0.164329
      45.6000      0.162306
      45.7000      0.160288
      45.8000      0.158277
      45.9000      0.156317
      46.0000      0.154363
      46.1000      0.152413
      46.2000      0.150554
      46.3000      0.148846
      46.4000      0.147144
      46.5000      0.145445
      46.6000      0.143802
      46.7000      0.142188
      46.8000      0.140579
      46.9000      0.138974
      47.0000      0.137445
      47.1000      0.135926
      47.2000      0.134410
      47.3000      0.132906
      47.4000      0.131441
      47.5000      0.129980
      47.6000      0.128522
      47.7000      0.127082
      47.8000      0.125666
      47.9000      0.124254
      48.0000      0.122845
      48.1000      0.121459
      48.2000      0.120092
      48.3000      0.118729
      48.4000      0.117368
      48.5000      0.116035
      48.6000      0.114714
      48.7000      0.113396
      48.8000      0.112082
      48.9000      0.110799
      49.0000      0.109525
      49.1000      0.108255
      49.2000      0.106988
      49.3000      0.105755
      49.4000      0.104527
      49.5000      0.103303
      49.6000      0.102081
      49.7000      0.100895
      49.8000     0.0997117
      49.9000     0.0985317
      50.0000     0.0973560
      50.1000     0.0962177
      50.2000     0.0951404
      50.3000     0.0940720
      50.4000     0.0930142
      50.5000     0.0919659
      50.6000     0.0909279
      50.7000     0.0899012
      50.8000     0.0888828
      50.9000     0.0878759
      51.0000     0.0868875
      51.1000     0.0859118
      51.2000     0.0849450
      51.3000     0.0839877
      51.4000     0.0830412
      51.5000     0.0821018
      51.6000     0.0811705
      51.7000     0.0802479
      51.8000     0.0793266
      51.9000     0.0784132
      52.0000     0.0775084
      52.1000     0.0766123
      52.2000     0.0757251
      52.3000     0.0748454
      52.4000     0.0739746
      52.5000     0.0731125
      52.6000     0.0722576
      52.7000     0.0714094
      52.8000     0.0705688
      52.9000     0.0697364
      53.0000     0.0689124
      53.1000     0.0680962
      53.2000     0.0672894
      53.3000     0.0664907
      53.4000     0.0656992
      53.5000     0.0649148
      53.6000     0.0641374
      53.7000     0.0633673
      53.8000     0.0626063
      53.9000     0.0618527
      54.0000     0.0611074
      54.1000     0.0603706
      54.2000     0.0596398
      54.3000     0.0589162
      54.4000     0.0581999
      54.5000     0.0574905
      54.6000     0.0567896
      54.7000     0.0560957
      54.8000     0.0554095
      54.9000     0.0547304
      55.0000     0.0540582
      55.1000     0.0533918
      55.2000     0.0527079
      55.3000     0.0520095
      55.4000     0.0513181
      55.5000     0.0506346
      55.6000     0.0499585
      55.7000     0.0492905
      55.8000     0.0486294
      55.9000     0.0479750
      56.0000     0.0473351
      56.1000     0.0466913
      56.2000     0.0460448
      56.3000     0.0454055
      56.4000     0.0447737
      56.5000     0.0441485
      56.6000     0.0435303
      56.7000     0.0429200
      56.8000     0.0423166
      56.9000     0.0417222
      57.0000     0.0411342
      57.1000     0.0405522
      57.2000     0.0399760
      57.3000     0.0394066
      57.4000     0.0388436
      57.5000     0.0382879
      57.6000     0.0377385
      57.7000     0.0371957
      57.8000     0.0366604
      57.9000     0.0361324
      58.0000     0.0356103
      58.1000     0.0350935
      58.2000     0.0345836
      58.3000     0.0340798
      58.4000     0.0335822
      58.5000     0.0330906
      58.6000     0.0326057
      58.7000     0.0321265
      58.8000     0.0316536
      58.9000     0.0311862
      59.0000     0.0307246
      59.1000     0.0302685
      59.2000     0.0298185
      59.3000     0.0293742
      59.4000     0.0289359
      59.5000     0.0285031
      59.6000     0.0280761
      59.7000     0.0276539
      59.8000     0.0272373
      59.9000     0.0268257
      60.0000     0.0264199
      60.1000     0.0260190
      60.2000     0.0256237
      60.3000     0.0252338
      60.4000     0.0248489
      60.5000     0.0244695
      60.6000     0.0240944
      60.7000     0.0237234
      60.8000     0.0233570
      60.9000     0.0229956
      61.0000     0.0226389
      61.1000     0.0222875
      61.2000     0.0219405
      61.3000     0.0215987
      61.4000     0.0212611
      61.5000     0.0209282
      61.6000     0.0205992
      61.7000     0.0202746
      61.8000     0.0199552
      61.9000     0.0196411
      62.0000     0.0193313
      62.1000     0.0190257
      62.2000     0.0187247
      62.3000     0.0184276
      62.4000     0.0181348
      62.5000     0.0178458
      62.6000     0.0175606
      62.7000     0.0172790
      62.8000     0.0170028
      62.9000     0.0167305
      63.0000     0.0164621
      63.1000     0.0161976
      63.2000     0.0159367
      63.3000     0.0156792
      63.4000     0.0154250
      63.5000     0.0151750
      63.6000     0.0149282
      63.7000     0.0146849
      63.8000     0.0144453
      63.9000     0.0142094
      64.0000     0.0139770
      64.1000     0.0137477
      64.2000     0.0135223
      64.3000     0.0132998
      64.4000     0.0130805
      64.5000     0.0128641
      64.6000     0.0126507
      64.7000     0.0124406
      64.8000     0.0122334
      64.9000     0.0120294
      65.0000     0.0118283
      65.1000     0.0116305
      65.2000     0.0114358
      65.3000     0.0112436
      65.4000     0.0110545
      65.5000     0.0108680
      65.6000     0.0106841
      65.7000     0.0105029
      65.8000     0.0103246
      65.9000     0.0101495
      66.0000    0.00997683
      66.1000    0.00980700
      66.2000    0.00963978
      66.3000    0.00947497
      66.4000    0.00931274
      66.5000    0.00915272
      66.6000    0.00899514
      66.7000    0.00884003
      66.8000    0.00868728
      66.9000    0.00854011
      67.0000    0.00839797
      67.1000    0.00825861
      67.2000    0.00812151
      67.3000    0.00798631
      67.4000    0.00785321
      67.5000    0.00772198
      67.6000    0.00759262
      67.7000    0.00746523
      67.8000    0.00733936
      67.9000    0.00721513
      68.0000    0.00709355
      68.1000    0.00697452
      68.2000    0.00685730
      68.3000    0.00674179
      68.4000    0.00662817
      68.5000    0.00651641
      68.6000    0.00640613
      68.7000    0.00629756
      68.8000    0.00619059
      68.9000    0.00608679
      69.0000    0.00599330
      69.1000    0.00590910
      69.2000    0.00582750
      69.3000    0.00574820
      69.4000    0.00567196
      69.5000    0.00559408
      69.6000    0.00551366
      69.7000    0.00543640
      69.8000    0.00536305
      69.9000    0.00529073
      70.0000    0.00521911
      70.1000    0.00514696
      70.2000    0.00507836
      70.3000    0.00501335
      70.4000    0.00494855
      70.5000    0.00488527
      70.6000    0.00482349
      70.7000    0.00476258
      70.8000    0.00470223
      70.9000    0.00464043
      71.0000    0.00457737
      71.1000    0.00451719
      71.2000    0.00446002
      71.3000    0.00439934
      71.4000    0.00433422
      71.5000    0.00427427
      71.6000    0.00422178
      71.7000    0.00416882
      71.8000    0.00411416
      71.9000    0.00406139
      72.0000    0.00401260
