Filter Be-med
observation_date 2021-09-22 22:45:45
wavelength effective area
      1.00000   2.78114e-10
      1.10000   7.93774e-10
      1.20000   2.06297e-09
      1.30000   4.93135e-09
      1.40000   1.11851e-08
      1.50000   2.38506e-08
      1.60000   4.82554e-08
      1.70000   9.36187e-08
      1.80000   1.74158e-07
      1.90000   3.12737e-07
      2.00000   5.43143e-07
      2.10000   9.16357e-07
      2.20000   1.50905e-06
      2.30000   2.42235e-06
      2.40000   3.79697e-06
      2.50000   5.79276e-06
      2.60000   8.82345e-06
      2.70000   1.31275e-05
      2.80000   1.91540e-05
      2.90000   2.76539e-05
      3.00000   3.92947e-05
      3.10000   5.51082e-05
      3.20000   7.64256e-05
      3.30000   0.000104887
      3.40000   0.000142413
      3.50000   0.000191449
      3.60000   0.000256108
      3.70000   0.000338887
      3.80000   0.000446428
      3.90000   0.000584660
      4.00000   0.000760709
      4.10000   0.000984888
      4.20000    0.00127034
      4.30000    0.00163337
      4.40000    0.00209386
      4.50000    0.00267592
      4.60000    0.00340723
      4.70000    0.00433662
      4.80000    0.00551166
      4.90000    0.00691310
      5.00000    0.00889465
      5.10000     0.0112799
      5.20000     0.0143393
      5.30000     0.0180695
      5.40000     0.0227212
      5.50000     0.0286083
      5.60000     0.0349028
      5.70000     0.0448427
      5.80000     0.0519220
      5.90000     0.0782706
      6.00000      0.103833
      6.10000      0.130898
      6.20000      0.158509
      6.30000      0.183915
      6.40000      0.204590
      6.50000      0.218426
      6.60000      0.222534
      6.70000      0.225659
      6.80000      0.222183
      6.90000      0.286430
      7.00000      0.305894
      7.10000      0.317512
      7.20000      0.324912
      7.30000      0.329266
      7.40000      0.330603
      7.50000      0.329944
      7.60000      0.327451
      7.70000      0.322383
      7.80000      0.314301
      7.90000      0.306556
      8.00000      0.432382
      8.10000      0.461612
      8.20000      0.457121
      8.30000      0.450435
      8.40000      0.441766
      8.50000      0.432241
      8.60000      0.421830
      8.70000      0.410857
      8.80000      0.399289
      8.90000      0.387348
      9.00000      0.375080
      9.10000      0.362560
      9.20000      0.349877
      9.30000      0.337099
      9.40000      0.324261
      9.50000      0.311412
      9.60000      0.298634
      9.70000      0.285933
      9.80000      0.273365
      9.90000      0.261001
      10.0000      0.248868
      10.1000      0.236961
      10.2000      0.225302
      10.3000      0.213930
      10.4000      0.202865
      10.5000      0.192095
      10.6000      0.181636
      10.7000      0.171498
      10.8000      0.161707
      10.9000      0.152292
      11.0000      0.143221
      11.1000      0.134503
      11.2000      0.126139
      11.3000      0.118129
      11.4000      0.110469
      11.5000      0.103156
      11.6000     0.0961878
      11.7000     0.0895733
      11.8000     0.0832910
      11.9000     0.0773193
      12.0000     0.0715826
      12.1000     0.0663931
      12.2000     0.0626184
      12.3000     0.0583786
      12.4000     0.0539526
      12.5000     0.0497614
      12.6000     0.0458203
      12.7000     0.0421282
      12.8000     0.0386765
      12.9000     0.0354545
      13.0000     0.0324534
      13.1000     0.0296634
      13.2000     0.0270778
      13.3000     0.0246983
      13.4000     0.0225064
      13.5000     0.0204823
      13.6000     0.0186274
      13.7000     0.0169179
      13.8000     0.0153441
      13.9000     0.0138973
      14.0000     0.0125689
      14.1000     0.0113488
      14.2000     0.0102285
      14.3000    0.00920223
      14.4000    0.00826455
      14.5000    0.00741412
      14.6000    0.00664728
      14.7000    0.00594936
      14.8000    0.00531504
      14.9000    0.00473931
      15.0000    0.00421755
      15.1000    0.00374556
      15.2000    0.00332792
      15.3000    0.00295241
      15.4000    0.00261370
      15.5000    0.00230867
      15.6000    0.00203453
      15.7000    0.00179202
      15.8000    0.00157853
      15.9000    0.00138702
      16.0000    0.00121554
      16.1000    0.00106230
      16.2000   0.000929704
      16.3000   0.000812592
      16.4000   0.000708038
      16.5000   0.000614917
      16.6000   0.000533987
      16.7000   0.000464024
      16.8000   0.000401745
      16.9000   0.000346480
      17.0000   0.000298948
      17.1000   0.000258314
      17.2000   0.000222414
      17.3000   0.000190818
      17.4000   0.000164347
      17.5000   0.000141244
      17.6000   0.000120914
      17.7000   0.000103627
      17.8000   8.96062e-05
      17.9000   7.71490e-05
      18.0000   6.60778e-05
      18.1000   5.69551e-05
      18.2000   4.87854e-05
      18.3000   4.14339e-05
      18.4000   3.51706e-05
      18.5000   2.97292e-05
      18.6000   2.48706e-05
      18.7000   2.07748e-05
      18.8000   1.73463e-05
      18.9000   1.43422e-05
      19.0000   1.19094e-05
      19.1000   9.88386e-06
      19.2000   8.11226e-06
      19.3000   6.70806e-06
      19.4000   5.53925e-06
      19.5000   4.52888e-06
      19.6000   3.77369e-06
      19.7000   3.11833e-06
      19.8000   2.55148e-06
      19.9000   2.12034e-06
      20.0000   1.73672e-06
      20.1000   1.42213e-06
      20.2000   1.17076e-06
      20.3000   9.48699e-07
      20.4000   7.78953e-07
      20.5000   6.33926e-07
      20.6000   5.10918e-07
      20.7000   4.18331e-07
      20.8000   3.35781e-07
      20.9000   2.72417e-07
      21.0000   2.19672e-07
      21.1000   1.74908e-07
      21.2000   1.41945e-07
      21.3000   1.12420e-07
      21.4000   9.05106e-08
      21.5000   7.19863e-08
      21.6000   5.68863e-08
      21.7000   4.54888e-08
      21.8000   3.53358e-08
      21.9000   2.83304e-08
      22.0000   2.20360e-08
      22.1000   1.73779e-08
      22.2000   1.35666e-08
      22.3000   1.04909e-08
      22.4000   8.11556e-09
      22.5000   5.97013e-09
      22.6000   4.29771e-09
      22.7000   2.91726e-09
      22.8000   2.81463e-09
      22.9000   2.79433e-09
      23.0000   2.84570e-09
      23.1000   2.65259e-09
      23.2000   2.23599e-09
      23.3000   1.82604e-09
      23.4000   1.42041e-09
      23.5000   1.12867e-09
      23.6000   8.65455e-10
      23.7000   6.88724e-10
      23.8000   5.21692e-10
      23.9000   4.14995e-10
      24.0000   3.13881e-10
      24.1000   2.47639e-10
      24.2000   1.86888e-10
      24.3000   1.46383e-10
      24.4000   1.10264e-10
      24.5000   8.57790e-11
      24.6000   6.44464e-11
      24.7000   4.98434e-11
      24.8000   3.73342e-11
      24.9000   2.87292e-11
      25.0000   2.14329e-11
      25.1000   1.64277e-11
      25.2000   1.21945e-11
      25.3000   9.31922e-12
      25.4000   6.87450e-12
      25.5000   5.24485e-12
      25.6000   3.84005e-12
      25.7000   2.92846e-12
      25.8000   2.12489e-12
      25.9000   1.62177e-12
      26.0000   1.16440e-12
      26.1000   8.90462e-13
      26.2000   6.31573e-13
      26.3000   4.84541e-13
      26.4000   3.38983e-13
      26.5000   2.61185e-13
      26.6000   1.83804e-13
      26.7000   1.39381e-13
      26.8000   9.90468e-14
      26.9000   7.35972e-14
      27.0000   5.28758e-14
      27.1000   3.84098e-14
      27.2000   2.79240e-14
      27.3000   1.98167e-14
      27.4000   1.46573e-14
      27.5000   1.01835e-14
      27.6000   7.61283e-15
      27.7000   5.12972e-15
      27.8000   3.88578e-15
      27.9000   2.64848e-15
      28.0000   1.95353e-15
      28.1000   1.36656e-15
      28.2000   9.67399e-16
      28.3000   6.93649e-16
      28.4000   4.71483e-16
      28.5000   3.46021e-16
      28.6000   2.25976e-16
      28.7000   1.69504e-16
      28.8000   1.13341e-16
      28.9000   8.14855e-17
      29.0000   5.66402e-17
      29.1000   3.84022e-17
      29.2000   2.76139e-17
      29.3000   1.77305e-17
      29.4000   1.31348e-17
      29.5000   8.56473e-18
      29.6000   6.09591e-18
      29.7000   4.18698e-18
      29.8000   2.76054e-18
      29.9000   1.97874e-18
      30.0000   1.21961e-18
      30.1000   9.05873e-19
      30.2000   5.93896e-19
      30.3000   4.05495e-19
      30.4000   2.87883e-19
      30.5000   1.84956e-19
      30.6000   1.34689e-19
      30.7000   8.47071e-20
      30.8000   5.86448e-20
      30.9000   3.98284e-20
      31.0000   2.47310e-20
      31.1000   1.78912e-20
      31.2000   1.10904e-20
      31.3000   7.80271e-21
      31.4000   5.27644e-21
      31.5000   3.27371e-21
      31.6000   2.35549e-21
      31.7000   1.44258e-21
      31.8000   9.99301e-22
      31.9000   6.75222e-22
      32.0000   4.07011e-22
      32.1000   2.96658e-22
      32.2000   1.86942e-22
      32.3000   1.26294e-22
      32.4000   8.73613e-23
      32.5000   5.14063e-23
      32.6000   3.78936e-23
      32.7000   2.44582e-23
      32.8000   1.55265e-23
      32.9000   1.09625e-23
      33.0000   6.42498e-24
      33.1000   4.55117e-24
      33.2000   3.04497e-24
      33.3000   1.78251e-24
      33.4000   1.29352e-24
      33.5000   8.07277e-25
      33.6000   5.09807e-25
      33.7000   3.55656e-25
      33.8000   2.02357e-25
      33.9000   1.41861e-25
      34.0000   9.44077e-26
      34.1000   5.27211e-26
      34.2000   3.83913e-26
      34.3000   2.41364e-26
      34.4000   1.42932e-26
      34.5000   1.00963e-26
      34.6000   5.92160e-27
      34.7000   3.77794e-27
      34.8000   2.57961e-27
      34.9000   1.38757e-27
      35.0000   9.72879e-28
      35.1000   6.40060e-28
      35.2000   3.34844e-28
      35.3000   2.44386e-28
      35.4000   1.54406e-28
      35.5000   8.37084e-29
      35.6000   5.99149e-29
      35.7000   3.62472e-29
      35.8000   2.04305e-29
      35.9000   1.43448e-29
      36.0000   8.29129e-30
      36.1000   4.86845e-30
      36.2000   3.35620e-30
      36.3000   1.85198e-30
      36.4000   1.13313e-30
      36.5000   7.68159e-31
      36.6000   4.05161e-31
      36.7000   2.57647e-31
      36.8000   1.72153e-31
      36.9000   8.71221e-32
      37.0000   5.72340e-32
      37.1000   3.78067e-32
      37.2000   1.84834e-32
      37.3000   1.24189e-32
      37.4000   8.13988e-33
      37.5000   3.88413e-33
      37.6000   2.63191e-33
      37.7000   1.71902e-33
      37.8000   8.11104e-34
      37.9000   5.44690e-34
      38.0000   3.56074e-34
      38.1000   1.68481e-34
      38.2000   1.09980e-34
      38.3000   7.22693e-35
      38.4000   3.47635e-35
      38.5000   2.16344e-35
      38.6000   1.43504e-35
      38.7000   7.10606e-36
      38.8000   4.14372e-36
      38.9000   2.78468e-36
      39.0000   1.43301e-36
      39.1000   7.72100e-37
      39.2000   5.27185e-37
      39.3000   2.83601e-37
      39.4000   1.39577e-37
      39.5000   9.67354e-38
      39.6000   5.41305e-38
      39.7000   2.37500e-38
      39.8000   1.67857e-38
      39.9000   9.85949e-39
      40.0000   3.89781e-39
      40.1000   2.81206e-39
      40.2000   1.73225e-39
      40.3000   6.58497e-40
      40.4000   4.54953e-40
      40.5000   2.93070e-40
      40.6000   1.32074e-40
      40.7000   7.09029e-41
      40.8000   4.75923e-41
      40.9000   2.44092e-41
      41.0000   1.06162e-41
      41.1000   7.39886e-42
      41.2000   4.19829e-42
      41.3000   1.52742e-42
      41.4000   1.09862e-42
      41.5000   6.74025e-43
      41.6000   2.55036e-43
      41.7000   1.52742e-43
      41.8000   1.02295e-43
      41.9000   4.76441e-44
      42.0000   2.24208e-44
      42.1000   1.54143e-44
      42.2000   7.00649e-45
      42.3000   2.80260e-45
      42.4000   2.80260e-45
      42.5000   2.80260e-45
      42.6000  -2.80260e-45
      42.7000       0.00000
      42.8000       0.00000
      42.9000       0.00000
      43.0000       0.00000
      43.1000       0.00000
      43.2000       0.00000
      43.3000       0.00000
      43.4000       0.00000
      43.5000       0.00000
      43.6000       0.00000
      43.7000       0.00000
      43.8000       0.00000
      43.9000       0.00000
      44.0000       0.00000
      44.1000       0.00000
      44.2000       0.00000
      44.3000       0.00000
      44.4000       0.00000
      44.5000       0.00000
      44.6000       0.00000
      44.7000       0.00000
      44.8000       0.00000
      44.9000       0.00000
      45.0000       0.00000
      45.1000       0.00000
      45.2000       0.00000
      45.3000       0.00000
      45.4000       0.00000
      45.5000       0.00000
      45.6000       0.00000
      45.7000       0.00000
      45.8000       0.00000
      45.9000       0.00000
      46.0000       0.00000
      46.1000       0.00000
      46.2000       0.00000
      46.3000       0.00000
      46.4000       0.00000
      46.5000       0.00000
      46.6000       0.00000
      46.7000       0.00000
      46.8000       0.00000
      46.9000       0.00000
      47.0000       0.00000
      47.1000       0.00000
      47.2000       0.00000
      47.3000       0.00000
      47.4000       0.00000
      47.5000       0.00000
      47.6000       0.00000
      47.7000       0.00000
      47.8000       0.00000
      47.9000       0.00000
      48.0000       0.00000
      48.1000       0.00000
      48.2000       0.00000
      48.3000       0.00000
      48.4000       0.00000
      48.5000       0.00000
      48.6000       0.00000
      48.7000       0.00000
      48.8000       0.00000
      48.9000       0.00000
      49.0000       0.00000
      49.1000       0.00000
      49.2000       0.00000
      49.3000       0.00000
      49.4000       0.00000
      49.5000       0.00000
      49.6000       0.00000
      49.7000       0.00000
      49.8000       0.00000
      49.9000       0.00000
      50.0000       0.00000
      50.1000       0.00000
      50.2000       0.00000
      50.3000       0.00000
      50.4000       0.00000
      50.5000       0.00000
      50.6000       0.00000
      50.7000       0.00000
      50.8000       0.00000
      50.9000       0.00000
      51.0000       0.00000
      51.1000       0.00000
      51.2000       0.00000
      51.3000       0.00000
      51.4000       0.00000
      51.5000       0.00000
      51.6000       0.00000
      51.7000       0.00000
      51.8000       0.00000
      51.9000       0.00000
      52.0000       0.00000
      52.1000       0.00000
      52.2000       0.00000
      52.3000       0.00000
      52.4000       0.00000
      52.5000       0.00000
      52.6000       0.00000
      52.7000       0.00000
      52.8000       0.00000
      52.9000       0.00000
      53.0000       0.00000
      53.1000       0.00000
      53.2000       0.00000
      53.3000       0.00000
      53.4000       0.00000
      53.5000       0.00000
      53.6000       0.00000
      53.7000       0.00000
      53.8000       0.00000
      53.9000       0.00000
      54.0000       0.00000
      54.1000       0.00000
      54.2000       0.00000
      54.3000       0.00000
      54.4000       0.00000
      54.5000       0.00000
      54.6000       0.00000
      54.7000       0.00000
      54.8000       0.00000
      54.9000       0.00000
      55.0000       0.00000
      55.1000       0.00000
      55.2000       0.00000
      55.3000       0.00000
      55.4000       0.00000
      55.5000       0.00000
      55.6000       0.00000
      55.7000       0.00000
      55.8000       0.00000
      55.9000       0.00000
      56.0000       0.00000
      56.1000       0.00000
      56.2000       0.00000
      56.3000       0.00000
      56.4000       0.00000
      56.5000       0.00000
      56.6000       0.00000
      56.7000       0.00000
      56.8000       0.00000
      56.9000       0.00000
      57.0000       0.00000
      57.1000       0.00000
      57.2000       0.00000
      57.3000       0.00000
      57.4000       0.00000
      57.5000       0.00000
      57.6000       0.00000
      57.7000       0.00000
      57.8000       0.00000
      57.9000       0.00000
      58.0000       0.00000
      58.1000       0.00000
      58.2000       0.00000
      58.3000       0.00000
      58.4000       0.00000
      58.5000       0.00000
      58.6000       0.00000
      58.7000       0.00000
      58.8000       0.00000
      58.9000       0.00000
      59.0000       0.00000
      59.1000       0.00000
      59.2000       0.00000
      59.3000       0.00000
      59.4000       0.00000
      59.5000       0.00000
      59.6000       0.00000
      59.7000       0.00000
      59.8000       0.00000
      59.9000       0.00000
      60.0000       0.00000
      60.1000       0.00000
      60.2000       0.00000
      60.3000       0.00000
      60.4000       0.00000
      60.5000       0.00000
      60.6000       0.00000
      60.7000       0.00000
      60.8000       0.00000
      60.9000       0.00000
      61.0000       0.00000
      61.1000       0.00000
      61.2000       0.00000
      61.3000       0.00000
      61.4000       0.00000
      61.5000       0.00000
      61.6000       0.00000
      61.7000       0.00000
      61.8000       0.00000
      61.9000       0.00000
      62.0000       0.00000
      62.1000       0.00000
      62.2000       0.00000
      62.3000       0.00000
      62.4000       0.00000
      62.5000       0.00000
      62.6000       0.00000
      62.7000       0.00000
      62.8000       0.00000
      62.9000       0.00000
      63.0000       0.00000
      63.1000       0.00000
      63.2000       0.00000
      63.3000       0.00000
      63.4000       0.00000
      63.5000       0.00000
      63.6000       0.00000
      63.7000       0.00000
      63.8000       0.00000
      63.9000       0.00000
      64.0000       0.00000
      64.1000       0.00000
      64.2000       0.00000
      64.3000       0.00000
      64.4000       0.00000
      64.5000       0.00000
      64.6000       0.00000
      64.7000       0.00000
      64.8000       0.00000
      64.9000       0.00000
      65.0000       0.00000
      65.1000       0.00000
      65.2000       0.00000
      65.3000       0.00000
      65.4000       0.00000
      65.5000       0.00000
      65.6000       0.00000
      65.7000       0.00000
      65.8000       0.00000
      65.9000       0.00000
      66.0000       0.00000
      66.1000       0.00000
      66.2000       0.00000
      66.3000       0.00000
      66.4000       0.00000
      66.5000       0.00000
      66.6000       0.00000
      66.7000       0.00000
      66.8000       0.00000
      66.9000       0.00000
      67.0000       0.00000
      67.1000       0.00000
      67.2000       0.00000
      67.3000       0.00000
      67.4000       0.00000
      67.5000       0.00000
      67.6000       0.00000
      67.7000       0.00000
      67.8000       0.00000
      67.9000       0.00000
      68.0000       0.00000
      68.1000       0.00000
      68.2000       0.00000
      68.3000       0.00000
      68.4000       0.00000
      68.5000       0.00000
      68.6000       0.00000
      68.7000       0.00000
      68.8000       0.00000
      68.9000       0.00000
      69.0000       0.00000
      69.1000       0.00000
      69.2000       0.00000
      69.3000       0.00000
      69.4000       0.00000
      69.5000       0.00000
      69.6000       0.00000
      69.7000       0.00000
      69.8000       0.00000
      69.9000       0.00000
      70.0000       0.00000
      70.1000       0.00000
      70.2000       0.00000
      70.3000       0.00000
      70.4000       0.00000
      70.5000       0.00000
      70.6000       0.00000
      70.7000       0.00000
      70.8000       0.00000
      70.9000       0.00000
      71.0000       0.00000
      71.1000       0.00000
      71.2000       0.00000
      71.3000       0.00000
      71.4000       0.00000
      71.5000       0.00000
      71.6000       0.00000
      71.7000       0.00000
      71.8000       0.00000
      71.9000       0.00000
      72.0000       0.00000
