Filter Be-med
observation_date 2015-09-22 22:40:45
wavelength effective area
      1.00000   2.78115e-10
      1.10000   7.93777e-10
      1.20000   2.06298e-09
      1.30000   4.93139e-09
      1.40000   1.11852e-08
      1.50000   2.38508e-08
      1.60000   4.82560e-08
      1.70000   9.36202e-08
      1.80000   1.74161e-07
      1.90000   3.12744e-07
      2.00000   5.43156e-07
      2.10000   9.16384e-07
      2.20000   1.50910e-06
      2.30000   2.42245e-06
      2.40000   3.79714e-06
      2.50000   5.79304e-06
      2.60000   8.82394e-06
      2.70000   1.31283e-05
      2.80000   1.91554e-05
      2.90000   2.76560e-05
      3.00000   3.92981e-05
      3.10000   5.51135e-05
      3.20000   7.64337e-05
      3.30000   0.000104899
      3.40000   0.000142431
      3.50000   0.000191475
      3.60000   0.000256147
      3.70000   0.000338943
      3.80000   0.000446507
      3.90000   0.000584772
      4.00000   0.000760866
      4.10000   0.000985107
      4.20000    0.00127065
      4.30000    0.00163379
      4.40000    0.00209443
      4.50000    0.00267670
      4.60000    0.00340830
      4.70000    0.00433807
      4.80000    0.00551361
      4.90000    0.00691570
      5.00000    0.00889820
      5.10000     0.0112847
      5.20000     0.0143457
      5.30000     0.0180781
      5.40000     0.0227325
      5.50000     0.0286234
      5.60000     0.0349222
      5.70000     0.0448690
      5.80000     0.0519540
      5.90000     0.0783213
      6.00000      0.103904
      6.10000      0.130992
      6.20000      0.158628
      6.30000      0.184059
      6.40000      0.204758
      6.50000      0.218613
      6.60000      0.222733
      6.70000      0.225870
      6.80000      0.222400
      6.90000      0.286722
      7.00000      0.306219
      7.10000      0.317863
      7.20000      0.325286
      7.30000      0.329660
      7.40000      0.331015
      7.50000      0.330371
      7.60000      0.327890
      7.70000      0.322833
      7.80000      0.314755
      7.90000      0.307016
      8.00000      0.433054
      8.10000      0.462355
      8.20000      0.457884
      8.30000      0.451213
      8.40000      0.442555
      8.50000      0.433040
      8.60000      0.422636
      8.70000      0.411667
      8.80000      0.400103
      8.90000      0.388163
      9.00000      0.375895
      9.10000      0.363372
      9.20000      0.350686
      9.30000      0.337902
      9.40000      0.325057
      9.50000      0.312199
      9.60000      0.299412
      9.70000      0.286700
      9.80000      0.274120
      9.90000      0.261742
      10.0000      0.249596
      10.1000      0.237673
      10.2000      0.225998
      10.3000      0.214608
      10.4000      0.203526
      10.5000      0.192738
      10.6000      0.182260
      10.7000      0.172103
      10.8000      0.162293
      10.9000      0.152857
      11.0000      0.143767
      11.1000      0.135028
      11.2000      0.126644
      11.3000      0.118613
      11.4000      0.110933
      11.5000      0.103600
      11.6000     0.0966123
      11.7000     0.0899782
      11.8000     0.0836765
      11.9000     0.0776856
      12.0000     0.0719296
      12.1000     0.0667223
      12.2000     0.0629359
      12.3000     0.0586813
      12.4000     0.0542387
      12.5000     0.0500311
      12.6000     0.0460741
      12.7000     0.0423667
      12.8000     0.0389002
      12.9000     0.0356639
      13.0000     0.0326492
      13.1000     0.0298462
      13.2000     0.0272481
      13.3000     0.0248569
      13.4000     0.0226539
      13.5000     0.0206193
      13.6000     0.0187545
      13.7000     0.0170356
      13.8000     0.0154529
      13.9000     0.0139978
      14.0000     0.0126616
      14.1000     0.0114340
      14.2000     0.0103068
      14.3000    0.00927403
      14.4000    0.00833025
      14.5000    0.00747417
      14.6000    0.00670212
      14.7000    0.00599936
      14.8000    0.00536053
      14.9000    0.00478062
      15.0000    0.00425498
      15.1000    0.00377941
      15.2000    0.00335854
      15.3000    0.00298006
      15.4000    0.00263862
      15.5000    0.00233107
      15.6000    0.00205461
      15.7000    0.00181002
      15.8000    0.00159466
      15.9000    0.00140144
      16.0000    0.00122839
      16.1000    0.00107372
      16.2000   0.000939864
      16.3000   0.000821620
      16.4000   0.000716034
      16.5000   0.000621976
      16.6000   0.000540216
      16.7000   0.000469524
      16.8000   0.000406585
      16.9000   0.000350720
      17.0000   0.000302665
      17.1000   0.000261577
      17.2000   0.000225268
      17.3000   0.000193304
      17.4000   0.000166521
      17.5000   0.000143140
      17.6000   0.000122561
      17.7000   0.000105058
      17.8000   9.08606e-05
      17.9000   7.82434e-05
      18.0000   6.70277e-05
      18.1000   5.77849e-05
      18.2000   4.95056e-05
      18.3000   4.20538e-05
      18.4000   3.57040e-05
      18.5000   3.01862e-05
      18.6000   2.52582e-05
      18.7000   2.11031e-05
      18.8000   1.76241e-05
      18.9000   1.45751e-05
      19.0000   1.21054e-05
      19.1000   1.00488e-05
      19.2000   8.24944e-06
      19.3000   6.82302e-06
      19.4000   5.63544e-06
      19.5000   4.60856e-06
      19.6000   3.84095e-06
      19.7000   3.17463e-06
      19.8000   2.59813e-06
      19.9000   2.15961e-06
      20.0000   1.76930e-06
      20.1000   1.44914e-06
      20.2000   1.19327e-06
      20.3000   9.67170e-07
      20.4000   7.94308e-07
      20.5000   6.46576e-07
      20.6000   5.21239e-07
      20.7000   4.26885e-07
      20.8000   3.42731e-07
      20.9000   2.78124e-07
      21.0000   2.24330e-07
      21.1000   1.78661e-07
      21.2000   1.45027e-07
      21.3000   1.14890e-07
      21.4000   9.25231e-08
      21.5000   7.36059e-08
      21.6000   5.81812e-08
      21.7000   4.65365e-08
      21.8000   3.61591e-08
      21.9000   2.89982e-08
      22.0000   2.25615e-08
      22.1000   1.77971e-08
      22.2000   1.38976e-08
      22.3000   1.07498e-08
      22.4000   8.31814e-09
      22.5000   6.12085e-09
      22.6000   4.40743e-09
      22.7000   2.98751e-09
      22.8000   2.87334e-09
      22.9000   2.84907e-09
      23.0000   2.90010e-09
      23.1000   2.70370e-09
      23.2000   2.27955e-09
      23.3000   1.86201e-09
      23.4000   1.44870e-09
      23.5000   1.15140e-09
      23.6000   8.83068e-10
      23.7000   7.02893e-10
      23.8000   5.32540e-10
      23.9000   4.23718e-10
      24.0000   3.20549e-10
      24.1000   2.52956e-10
      24.2000   1.90943e-10
      24.3000   1.49593e-10
      24.4000   1.12708e-10
      24.5000   8.76999e-11
      24.6000   6.59047e-11
      24.7000   5.09831e-11
      24.8000   3.81967e-11
      24.9000   2.93998e-11
      25.0000   2.19383e-11
      25.1000   1.68190e-11
      25.2000   1.24880e-11
      25.3000   9.54579e-12
      25.4000   7.04333e-12
      25.5000   5.37495e-12
      25.6000   3.93626e-12
      25.7000   3.00256e-12
      25.8000   2.17918e-12
      25.9000   1.66361e-12
      26.0000   1.19474e-12
      26.1000   9.13883e-13
      26.2000   6.48346e-13
      26.3000   4.97533e-13
      26.4000   3.48159e-13
      26.5000   2.68323e-13
      26.6000   1.88875e-13
      26.7000   1.43262e-13
      26.8000   1.01831e-13
      26.9000   7.56855e-14
      27.0000   5.43903e-14
      27.1000   3.95202e-14
      27.2000   2.87388e-14
      27.3000   2.04003e-14
      27.4000   1.50929e-14
      27.5000   1.04889e-14
      27.6000   7.84327e-15
      27.7000   5.28642e-15
      27.8000   4.00556e-15
      27.9000   2.73086e-15
      28.0000   2.01485e-15
      28.1000   1.40984e-15
      28.2000   9.98310e-16
      28.3000   7.16013e-16
      28.4000   4.86819e-16
      28.5000   3.57377e-16
      28.6000   2.33458e-16
      28.7000   1.75166e-16
      28.8000   1.17160e-16
      28.9000   8.42552e-17
      29.0000   5.85823e-17
      29.1000   3.97305e-17
      29.2000   2.85773e-17
      29.3000   1.83544e-17
      29.4000   1.36010e-17
      29.5000   8.87134e-18
      29.6000   6.31601e-18
      29.7000   4.33945e-18
      29.8000   2.86192e-18
      29.9000   2.05203e-18
      30.0000   1.26517e-18
      30.1000   9.39995e-19
      30.2000   6.16455e-19
      30.3000   4.21026e-19
      30.4000   2.99002e-19
      30.5000   1.92158e-19
      30.6000   1.39978e-19
      30.7000   8.80609e-20
      30.8000   6.09859e-20
      30.9000   4.14315e-20
      31.0000   2.57346e-20
      31.1000   1.86232e-20
      31.2000   1.15479e-20
      31.3000   8.12714e-21
      31.4000   5.49761e-21
      31.5000   3.41204e-21
      31.6000   2.45583e-21
      31.7000   1.50452e-21
      31.8000   1.04255e-21
      31.9000   7.04681e-22
      32.0000   4.24909e-22
      32.1000   3.09807e-22
      32.2000   1.95294e-22
      32.3000   1.31980e-22
      32.4000   9.13258e-23
      32.5000   5.37572e-23
      32.6000   3.96397e-23
      32.7000   2.55936e-23
      32.8000   1.62526e-23
      32.9000   1.14790e-23
      33.0000   6.72996e-24
      33.1000   4.76870e-24
      33.2000   3.19150e-24
      33.3000   1.86888e-24
      33.4000   1.35663e-24
      33.5000   8.46932e-25
      33.6000   5.35021e-25
      33.7000   3.73366e-25
      33.8000   2.12502e-25
      33.9000   1.49021e-25
      34.0000   9.92047e-26
      34.1000   5.54180e-26
      34.2000   4.03683e-26
      34.3000   2.53877e-26
      34.4000   1.50392e-26
      34.5000   1.06267e-26
      34.6000   6.23475e-27
      34.7000   3.97905e-27
      34.8000   2.71784e-27
      34.9000   1.46241e-27
      35.0000   1.02570e-27
      35.1000   6.75037e-28
      35.2000   3.53262e-28
      35.3000   2.57916e-28
      35.4000   1.63009e-28
      35.5000   8.84027e-29
      35.6000   6.32966e-29
      35.7000   3.83062e-29
      35.8000   2.15986e-29
      35.9000   1.51701e-29
      36.0000   8.77141e-30
      36.1000   5.15217e-30
      36.2000   3.55303e-30
      36.3000   1.96128e-30
      36.4000   1.20042e-30
      36.5000   8.14067e-31
      36.6000   4.29528e-31
      36.7000   2.73239e-31
      36.8000   1.82637e-31
      36.9000   9.24607e-32
      37.0000   6.07630e-32
      37.1000   4.01523e-32
      37.2000   1.96373e-32
      37.3000   1.31990e-32
      37.4000   8.65431e-33
      37.5000   4.13112e-33
      37.6000   2.80029e-33
      37.7000   1.82967e-33
      37.8000   8.63634e-34
      37.9000   5.80181e-34
      38.0000   3.79415e-34
      38.1000   1.79592e-34
      38.2000   1.17277e-34
      38.3000   7.70930e-35
      38.4000   3.70978e-35
      38.5000   2.30958e-35
      38.6000   1.53256e-35
      38.7000   7.59187e-36
      38.8000   4.42870e-36
      38.9000   2.97733e-36
      39.0000   1.53273e-36
      39.1000   8.26149e-37
      39.2000   5.64306e-37
      39.3000   3.03688e-37
      39.4000   1.49521e-37
      39.5000   1.03668e-37
      39.6000   5.80323e-38
      39.7000   2.54719e-38
      39.8000   1.80098e-38
      39.9000   1.05827e-38
      40.0000   4.18537e-39
      40.1000   3.02071e-39
      40.2000   1.86152e-39
      40.3000   7.07921e-40
      40.4000   4.89296e-40
      40.5000   3.15320e-40
      40.6000   1.42156e-40
      40.7000   7.63469e-41
      40.8000   5.12693e-41
      40.9000   2.63080e-41
      41.0000   1.14472e-41
      41.1000   7.98039e-42
      41.2000   4.53040e-42
      41.3000   1.64793e-42
      41.4000   1.18550e-42
      41.5000   7.28675e-43
      41.6000   2.77457e-43
      41.7000   1.66755e-43
      41.8000   1.09301e-43
      41.9000   5.04467e-44
      42.0000   2.24208e-44
      42.1000   1.96182e-44
      42.2000   7.00649e-45
      42.3000   2.80260e-45
      42.4000   2.80260e-45
      42.5000   2.80260e-45
      42.6000  -2.80260e-45
      42.7000       0.00000
      42.8000       0.00000
      42.9000       0.00000
      43.0000       0.00000
      43.1000       0.00000
      43.2000       0.00000
      43.3000       0.00000
      43.4000       0.00000
      43.5000       0.00000
      43.6000       0.00000
      43.7000       0.00000
      43.8000       0.00000
      43.9000       0.00000
      44.0000       0.00000
      44.1000       0.00000
      44.2000       0.00000
      44.3000       0.00000
      44.4000       0.00000
      44.5000       0.00000
      44.6000       0.00000
      44.7000       0.00000
      44.8000       0.00000
      44.9000       0.00000
      45.0000       0.00000
      45.1000       0.00000
      45.2000       0.00000
      45.3000       0.00000
      45.4000       0.00000
      45.5000       0.00000
      45.6000       0.00000
      45.7000       0.00000
      45.8000       0.00000
      45.9000       0.00000
      46.0000       0.00000
      46.1000       0.00000
      46.2000       0.00000
      46.3000       0.00000
      46.4000       0.00000
      46.5000       0.00000
      46.6000       0.00000
      46.7000       0.00000
      46.8000       0.00000
      46.9000       0.00000
      47.0000       0.00000
      47.1000       0.00000
      47.2000       0.00000
      47.3000       0.00000
      47.4000       0.00000
      47.5000       0.00000
      47.6000       0.00000
      47.7000       0.00000
      47.8000       0.00000
      47.9000       0.00000
      48.0000       0.00000
      48.1000       0.00000
      48.2000       0.00000
      48.3000       0.00000
      48.4000       0.00000
      48.5000       0.00000
      48.6000       0.00000
      48.7000       0.00000
      48.8000       0.00000
      48.9000       0.00000
      49.0000       0.00000
      49.1000       0.00000
      49.2000       0.00000
      49.3000       0.00000
      49.4000       0.00000
      49.5000       0.00000
      49.6000       0.00000
      49.7000       0.00000
      49.8000       0.00000
      49.9000       0.00000
      50.0000       0.00000
      50.1000       0.00000
      50.2000       0.00000
      50.3000       0.00000
      50.4000       0.00000
      50.5000       0.00000
      50.6000       0.00000
      50.7000       0.00000
      50.8000       0.00000
      50.9000       0.00000
      51.0000       0.00000
      51.1000       0.00000
      51.2000       0.00000
      51.3000       0.00000
      51.4000       0.00000
      51.5000       0.00000
      51.6000       0.00000
      51.7000       0.00000
      51.8000       0.00000
      51.9000       0.00000
      52.0000       0.00000
      52.1000       0.00000
      52.2000       0.00000
      52.3000       0.00000
      52.4000       0.00000
      52.5000       0.00000
      52.6000       0.00000
      52.7000       0.00000
      52.8000       0.00000
      52.9000       0.00000
      53.0000       0.00000
      53.1000       0.00000
      53.2000       0.00000
      53.3000       0.00000
      53.4000       0.00000
      53.5000       0.00000
      53.6000       0.00000
      53.7000       0.00000
      53.8000       0.00000
      53.9000       0.00000
      54.0000       0.00000
      54.1000       0.00000
      54.2000       0.00000
      54.3000       0.00000
      54.4000       0.00000
      54.5000       0.00000
      54.6000       0.00000
      54.7000       0.00000
      54.8000       0.00000
      54.9000       0.00000
      55.0000       0.00000
      55.1000       0.00000
      55.2000       0.00000
      55.3000       0.00000
      55.4000       0.00000
      55.5000       0.00000
      55.6000       0.00000
      55.7000       0.00000
      55.8000       0.00000
      55.9000       0.00000
      56.0000       0.00000
      56.1000       0.00000
      56.2000       0.00000
      56.3000       0.00000
      56.4000       0.00000
      56.5000       0.00000
      56.6000       0.00000
      56.7000       0.00000
      56.8000       0.00000
      56.9000       0.00000
      57.0000       0.00000
      57.1000       0.00000
      57.2000       0.00000
      57.3000       0.00000
      57.4000       0.00000
      57.5000       0.00000
      57.6000       0.00000
      57.7000       0.00000
      57.8000       0.00000
      57.9000       0.00000
      58.0000       0.00000
      58.1000       0.00000
      58.2000       0.00000
      58.3000       0.00000
      58.4000       0.00000
      58.5000       0.00000
      58.6000       0.00000
      58.7000       0.00000
      58.8000       0.00000
      58.9000       0.00000
      59.0000       0.00000
      59.1000       0.00000
      59.2000       0.00000
      59.3000       0.00000
      59.4000       0.00000
      59.5000       0.00000
      59.6000       0.00000
      59.7000       0.00000
      59.8000       0.00000
      59.9000       0.00000
      60.0000       0.00000
      60.1000       0.00000
      60.2000       0.00000
      60.3000       0.00000
      60.4000       0.00000
      60.5000       0.00000
      60.6000       0.00000
      60.7000       0.00000
      60.8000       0.00000
      60.9000       0.00000
      61.0000       0.00000
      61.1000       0.00000
      61.2000       0.00000
      61.3000       0.00000
      61.4000       0.00000
      61.5000       0.00000
      61.6000       0.00000
      61.7000       0.00000
      61.8000       0.00000
      61.9000       0.00000
      62.0000       0.00000
      62.1000       0.00000
      62.2000       0.00000
      62.3000       0.00000
      62.4000       0.00000
      62.5000       0.00000
      62.6000       0.00000
      62.7000       0.00000
      62.8000       0.00000
      62.9000       0.00000
      63.0000       0.00000
      63.1000       0.00000
      63.2000       0.00000
      63.3000       0.00000
      63.4000       0.00000
      63.5000       0.00000
      63.6000       0.00000
      63.7000       0.00000
      63.8000       0.00000
      63.9000       0.00000
      64.0000       0.00000
      64.1000       0.00000
      64.2000       0.00000
      64.3000       0.00000
      64.4000       0.00000
      64.5000       0.00000
      64.6000       0.00000
      64.7000       0.00000
      64.8000       0.00000
      64.9000       0.00000
      65.0000       0.00000
      65.1000       0.00000
      65.2000       0.00000
      65.3000       0.00000
      65.4000       0.00000
      65.5000       0.00000
      65.6000       0.00000
      65.7000       0.00000
      65.8000       0.00000
      65.9000       0.00000
      66.0000       0.00000
      66.1000       0.00000
      66.2000       0.00000
      66.3000       0.00000
      66.4000       0.00000
      66.5000       0.00000
      66.6000       0.00000
      66.7000       0.00000
      66.8000       0.00000
      66.9000       0.00000
      67.0000       0.00000
      67.1000       0.00000
      67.2000       0.00000
      67.3000       0.00000
      67.4000       0.00000
      67.5000       0.00000
      67.6000       0.00000
      67.7000       0.00000
      67.8000       0.00000
      67.9000       0.00000
      68.0000       0.00000
      68.1000       0.00000
      68.2000       0.00000
      68.3000       0.00000
      68.4000       0.00000
      68.5000       0.00000
      68.6000       0.00000
      68.7000       0.00000
      68.8000       0.00000
      68.9000       0.00000
      69.0000       0.00000
      69.1000       0.00000
      69.2000       0.00000
      69.3000       0.00000
      69.4000       0.00000
      69.5000       0.00000
      69.6000       0.00000
      69.7000       0.00000
      69.8000       0.00000
      69.9000       0.00000
      70.0000       0.00000
      70.1000       0.00000
      70.2000       0.00000
      70.3000       0.00000
      70.4000       0.00000
      70.5000       0.00000
      70.6000       0.00000
      70.7000       0.00000
      70.8000       0.00000
      70.9000       0.00000
      71.0000       0.00000
      71.1000       0.00000
      71.2000       0.00000
      71.3000       0.00000
      71.4000       0.00000
      71.5000       0.00000
      71.6000       0.00000
      71.7000       0.00000
      71.8000       0.00000
      71.9000       0.00000
      72.0000       0.00000
