Filter Be-med
observation_date 2020-09-22 22:45:45
wavelength effective area
      1.00000   2.78114e-10
      1.10000   7.93775e-10
      1.20000   2.06298e-09
      1.30000   4.93137e-09
      1.40000   1.11851e-08
      1.50000   2.38506e-08
      1.60000   4.82556e-08
      1.70000   9.36192e-08
      1.80000   1.74159e-07
      1.90000   3.12739e-07
      2.00000   5.43148e-07
      2.10000   9.16367e-07
      2.20000   1.50907e-06
      2.30000   2.42239e-06
      2.40000   3.79703e-06
      2.50000   5.79286e-06
      2.60000   8.82363e-06
      2.70000   1.31278e-05
      2.80000   1.91545e-05
      2.90000   2.76547e-05
      3.00000   3.92959e-05
      3.10000   5.51101e-05
      3.20000   7.64286e-05
      3.30000   0.000104891
      3.40000   0.000142420
      3.50000   0.000191458
      3.60000   0.000256122
      3.70000   0.000338908
      3.80000   0.000446457
      3.90000   0.000584701
      4.00000   0.000760766
      4.10000   0.000984968
      4.20000    0.00127045
      4.30000    0.00163353
      4.40000    0.00209407
      4.50000    0.00267620
      4.60000    0.00340762
      4.70000    0.00433715
      4.80000    0.00551238
      4.90000    0.00691405
      5.00000    0.00889594
      5.10000     0.0112816
      5.20000     0.0143417
      5.30000     0.0180727
      5.40000     0.0227253
      5.50000     0.0286138
      5.60000     0.0349099
      5.70000     0.0448523
      5.80000     0.0519337
      5.90000     0.0782891
      6.00000      0.103859
      6.10000      0.130932
      6.20000      0.158553
      6.30000      0.183968
      6.40000      0.204651
      6.50000      0.218494
      6.60000      0.222607
      6.70000      0.225736
      6.80000      0.222262
      6.90000      0.286537
      7.00000      0.306013
      7.10000      0.317641
      7.20000      0.325049
      7.30000      0.329410
      7.40000      0.330754
      7.50000      0.330100
      7.60000      0.327612
      7.70000      0.322548
      7.80000      0.314467
      7.90000      0.306724
      8.00000      0.432628
      8.10000      0.461884
      8.20000      0.457400
      8.30000      0.450720
      8.40000      0.442055
      8.50000      0.432533
      8.60000      0.422125
      8.70000      0.411153
      8.80000      0.399587
      8.90000      0.387646
      9.00000      0.375378
      9.10000      0.362857
      9.20000      0.350173
      9.30000      0.337392
      9.40000      0.324552
      9.50000      0.311700
      9.60000      0.298918
      9.70000      0.286213
      9.80000      0.273641
      9.90000      0.261272
      10.0000      0.249134
      10.1000      0.237222
      10.2000      0.225556
      10.3000      0.214178
      10.4000      0.203107
      10.5000      0.192330
      10.6000      0.181864
      10.7000      0.171719
      10.8000      0.161921
      10.9000      0.152499
      11.0000      0.143421
      11.1000      0.134695
      11.2000      0.126323
      11.3000      0.118306
      11.4000      0.110639
      11.5000      0.103318
      11.6000     0.0963430
      11.7000     0.0897213
      11.8000     0.0834319
      11.9000     0.0774532
      12.0000     0.0717094
      12.1000     0.0665134
      12.2000     0.0627344
      12.3000     0.0584893
      12.4000     0.0540572
      12.5000     0.0498600
      12.6000     0.0459131
      12.7000     0.0422154
      12.8000     0.0387583
      12.9000     0.0355310
      13.0000     0.0325250
      13.1000     0.0297302
      13.2000     0.0271400
      13.3000     0.0247562
      13.4000     0.0225603
      13.5000     0.0205323
      13.6000     0.0186739
      13.7000     0.0169609
      13.8000     0.0153838
      13.9000     0.0139340
      14.0000     0.0126028
      14.1000     0.0113799
      14.2000     0.0102571
      14.3000    0.00922845
      14.4000    0.00828854
      14.5000    0.00743605
      14.6000    0.00666730
      14.7000    0.00596762
      14.8000    0.00533165
      14.9000    0.00475439
      15.0000    0.00423122
      15.1000    0.00375792
      15.2000    0.00333909
      15.3000    0.00296250
      15.4000    0.00262280
      15.5000    0.00231685
      15.6000    0.00204186
      15.7000    0.00179859
      15.8000    0.00158441
      15.9000    0.00139228
      16.0000    0.00122022
      16.1000    0.00106647
      16.2000   0.000933410
      16.3000   0.000815885
      16.4000   0.000710955
      16.5000   0.000617492
      16.6000   0.000536259
      16.7000   0.000466030
      16.8000   0.000403510
      16.9000   0.000348026
      17.0000   0.000300303
      17.1000   0.000259504
      17.2000   0.000223455
      17.3000   0.000191724
      17.4000   0.000165140
      17.5000   0.000141935
      17.6000   0.000121515
      17.7000   0.000104149
      17.8000   9.00634e-05
      17.9000   7.75478e-05
      18.0000   6.64240e-05
      18.1000   5.72575e-05
      18.2000   4.90478e-05
      18.3000   4.16597e-05
      18.4000   3.53649e-05
      18.5000   2.98957e-05
      18.6000   2.50118e-05
      18.7000   2.08944e-05
      18.8000   1.74475e-05
      18.9000   1.44270e-05
      19.0000   1.19808e-05
      19.1000   9.94391e-06
      19.2000   8.16221e-06
      19.3000   6.74992e-06
      19.4000   5.57427e-06
      19.5000   4.55789e-06
      19.6000   3.79817e-06
      19.7000   3.13883e-06
      19.8000   2.56846e-06
      19.9000   2.13463e-06
      20.0000   1.74858e-06
      20.1000   1.43196e-06
      20.2000   1.17895e-06
      20.3000   9.55419e-07
      20.4000   7.84539e-07
      20.5000   6.38528e-07
      20.6000   5.14673e-07
      20.7000   4.21442e-07
      20.8000   3.38309e-07
      20.9000   2.74492e-07
      21.0000   2.21366e-07
      21.1000   1.76272e-07
      21.2000   1.43065e-07
      21.3000   1.13318e-07
      21.4000   9.12422e-08
      21.5000   7.25750e-08
      21.6000   5.73570e-08
      21.7000   4.58696e-08
      21.8000   3.56350e-08
      21.9000   2.85730e-08
      22.0000   2.22269e-08
      22.1000   1.75302e-08
      22.2000   1.36868e-08
      22.3000   1.05849e-08
      22.4000   8.18914e-09
      22.5000   6.02487e-09
      22.6000   4.33755e-09
      22.7000   2.94278e-09
      22.8000   2.83598e-09
      22.9000   2.81424e-09
      23.0000   2.86549e-09
      23.1000   2.67118e-09
      23.2000   2.25184e-09
      23.3000   1.83912e-09
      23.4000   1.43070e-09
      23.5000   1.13694e-09
      23.6000   8.71861e-10
      23.7000   6.93877e-10
      23.8000   5.25637e-10
      23.9000   4.18168e-10
      24.0000   3.16306e-10
      24.1000   2.49572e-10
      24.2000   1.88362e-10
      24.3000   1.47550e-10
      24.4000   1.11153e-10
      24.5000   8.64772e-11
      24.6000   6.49764e-11
      24.7000   5.02577e-11
      24.8000   3.76476e-11
      24.9000   2.89729e-11
      25.0000   2.16165e-11
      25.1000   1.65698e-11
      25.2000   1.23011e-11
      25.3000   9.40154e-12
      25.4000   6.93583e-12
      25.5000   5.29210e-12
      25.6000   3.87499e-12
      25.7000   2.95537e-12
      25.8000   2.14461e-12
      25.9000   1.63696e-12
      26.0000   1.17542e-12
      26.1000   8.98966e-13
      26.2000   6.37662e-13
      26.3000   4.89257e-13
      26.4000   3.42314e-13
      26.5000   2.63776e-13
      26.6000   1.85644e-13
      26.7000   1.40790e-13
      26.8000   1.00057e-13
      26.9000   7.43549e-14
      27.0000   5.34252e-14
      27.1000   3.88126e-14
      27.2000   2.82195e-14
      27.3000   2.00284e-14
      27.4000   1.48153e-14
      27.5000   1.02943e-14
      27.6000   7.69639e-15
      27.7000   5.18654e-15
      27.8000   3.92921e-15
      27.9000   2.67835e-15
      28.0000   1.97576e-15
      28.1000   1.38224e-15
      28.2000   9.78601e-16
      28.3000   7.01753e-16
      28.4000   4.77040e-16
      28.5000   3.50135e-16
      28.6000   2.28687e-16
      28.7000   1.71555e-16
      28.8000   1.14724e-16
      28.9000   8.24887e-17
      29.0000   5.73436e-17
      29.1000   3.88833e-17
      29.2000   2.79627e-17
      29.3000   1.79564e-17
      29.4000   1.33035e-17
      29.5000   8.67572e-18
      29.6000   6.17558e-18
      29.7000   4.24216e-18
      29.8000   2.79723e-18
      29.9000   2.00526e-18
      30.0000   1.23609e-18
      30.1000   9.18217e-19
      30.2000   6.02057e-19
      30.3000   4.11113e-19
      30.4000   2.91905e-19
      30.5000   1.87560e-19
      30.6000   1.36602e-19
      30.7000   8.59197e-20
      30.8000   5.94911e-20
      30.9000   4.04079e-20
      31.0000   2.50938e-20
      31.1000   1.81558e-20
      31.2000   1.12558e-20
      31.3000   7.91994e-21
      31.4000   5.35635e-21
      31.5000   3.32369e-21
      31.6000   2.39174e-21
      31.7000   1.46495e-21
      31.8000   1.01492e-21
      31.9000   6.85860e-22
      32.0000   4.13473e-22
      32.1000   3.01405e-22
      32.2000   1.89957e-22
      32.3000   1.28347e-22
      32.4000   8.87923e-23
      32.5000   5.22547e-23
      32.6000   3.85237e-23
      32.7000   2.48679e-23
      32.8000   1.57884e-23
      32.9000   1.11488e-23
      33.0000   6.53498e-24
      33.1000   4.62963e-24
      33.2000   3.09781e-24
      33.3000   1.81365e-24
      33.4000   1.31627e-24
      33.5000   8.21574e-25
      33.6000   5.18896e-25
      33.7000   3.62039e-25
      33.8000   2.06013e-25
      33.9000   1.44441e-25
      34.0000   9.61362e-26
      34.1000   5.36928e-26
      34.2000   3.91036e-26
      34.3000   2.45872e-26
      34.4000   1.45619e-26
      34.5000   1.02873e-26
      34.6000   6.03436e-27
      34.7000   3.85035e-27
      34.8000   2.62937e-27
      34.9000   1.41451e-27
      35.0000   9.91892e-28
      35.1000   6.52649e-28
      35.2000   3.41472e-28
      35.3000   2.49255e-28
      35.4000   1.57501e-28
      35.5000   8.53972e-29
      35.6000   6.11313e-29
      35.7000   3.69878e-29
      35.8000   2.08506e-29
      35.9000   1.46416e-29
      36.0000   8.46393e-30
      36.1000   4.97046e-30
      36.2000   3.42695e-30
      36.3000   1.89126e-30
      36.4000   1.15731e-30
      36.5000   7.84654e-31
      36.6000   4.13916e-31
      36.7000   2.63249e-31
      36.8000   1.75919e-31
      36.9000   8.90398e-32
      37.0000   5.85015e-32
      37.1000   3.86491e-32
      37.2000   1.88977e-32
      37.3000   1.26989e-32
      37.4000   8.32453e-33
      37.5000   3.97278e-33
      37.6000   2.69234e-33
      37.7000   1.75872e-33
      37.8000   8.29953e-34
      37.9000   5.57424e-34
      38.0000   3.64448e-34
      38.1000   1.72466e-34
      38.2000   1.12597e-34
      38.3000   7.39990e-35
      38.4000   3.56004e-35
      38.5000   2.21583e-35
      38.6000   1.46999e-35
      38.7000   7.28018e-36
      38.8000   4.24585e-36
      38.9000   2.85371e-36
      39.0000   1.46874e-36
      39.1000   7.91463e-37
      39.2000   5.40482e-37
      39.3000   2.90795e-37
      39.4000   1.43138e-37
      39.5000   9.92176e-38
      39.6000   5.55274e-38
      39.7000   2.43664e-38
      39.8000   1.72238e-38
      39.9000   1.01183e-38
      40.0000   4.00071e-39
      40.1000   2.88671e-39
      40.2000   1.77849e-39
      40.3000   6.76176e-40
      40.4000   4.67234e-40
      40.5000   3.01026e-40
      40.6000   1.35681e-40
      40.7000   7.28479e-41
      40.8000   4.89053e-41
      40.9000   2.50874e-41
      41.0000   1.09133e-41
      41.1000   7.60765e-42
      41.2000   4.31600e-42
      41.3000   1.57226e-42
      41.4000   1.13085e-42
      41.5000   6.93643e-43
      41.6000   2.62043e-43
      41.7000   1.59748e-43
      41.8000   1.02295e-43
      41.9000   4.76441e-44
      42.0000   2.24208e-44
      42.1000   1.96182e-44
      42.2000   7.00649e-45
      42.3000   2.80260e-45
      42.4000   2.80260e-45
      42.5000   2.80260e-45
      42.6000  -2.80260e-45
      42.7000       0.00000
      42.8000       0.00000
      42.9000       0.00000
      43.0000       0.00000
      43.1000       0.00000
      43.2000       0.00000
      43.3000       0.00000
      43.4000       0.00000
      43.5000       0.00000
      43.6000       0.00000
      43.7000       0.00000
      43.8000       0.00000
      43.9000       0.00000
      44.0000       0.00000
      44.1000       0.00000
      44.2000       0.00000
      44.3000       0.00000
      44.4000       0.00000
      44.5000       0.00000
      44.6000       0.00000
      44.7000       0.00000
      44.8000       0.00000
      44.9000       0.00000
      45.0000       0.00000
      45.1000       0.00000
      45.2000       0.00000
      45.3000       0.00000
      45.4000       0.00000
      45.5000       0.00000
      45.6000       0.00000
      45.7000       0.00000
      45.8000       0.00000
      45.9000       0.00000
      46.0000       0.00000
      46.1000       0.00000
      46.2000       0.00000
      46.3000       0.00000
      46.4000       0.00000
      46.5000       0.00000
      46.6000       0.00000
      46.7000       0.00000
      46.8000       0.00000
      46.9000       0.00000
      47.0000       0.00000
      47.1000       0.00000
      47.2000       0.00000
      47.3000       0.00000
      47.4000       0.00000
      47.5000       0.00000
      47.6000       0.00000
      47.7000       0.00000
      47.8000       0.00000
      47.9000       0.00000
      48.0000       0.00000
      48.1000       0.00000
      48.2000       0.00000
      48.3000       0.00000
      48.4000       0.00000
      48.5000       0.00000
      48.6000       0.00000
      48.7000       0.00000
      48.8000       0.00000
      48.9000       0.00000
      49.0000       0.00000
      49.1000       0.00000
      49.2000       0.00000
      49.3000       0.00000
      49.4000       0.00000
      49.5000       0.00000
      49.6000       0.00000
      49.7000       0.00000
      49.8000       0.00000
      49.9000       0.00000
      50.0000       0.00000
      50.1000       0.00000
      50.2000       0.00000
      50.3000       0.00000
      50.4000       0.00000
      50.5000       0.00000
      50.6000       0.00000
      50.7000       0.00000
      50.8000       0.00000
      50.9000       0.00000
      51.0000       0.00000
      51.1000       0.00000
      51.2000       0.00000
      51.3000       0.00000
      51.4000       0.00000
      51.5000       0.00000
      51.6000       0.00000
      51.7000       0.00000
      51.8000       0.00000
      51.9000       0.00000
      52.0000       0.00000
      52.1000       0.00000
      52.2000       0.00000
      52.3000       0.00000
      52.4000       0.00000
      52.5000       0.00000
      52.6000       0.00000
      52.7000       0.00000
      52.8000       0.00000
      52.9000       0.00000
      53.0000       0.00000
      53.1000       0.00000
      53.2000       0.00000
      53.3000       0.00000
      53.4000       0.00000
      53.5000       0.00000
      53.6000       0.00000
      53.7000       0.00000
      53.8000       0.00000
      53.9000       0.00000
      54.0000       0.00000
      54.1000       0.00000
      54.2000       0.00000
      54.3000       0.00000
      54.4000       0.00000
      54.5000       0.00000
      54.6000       0.00000
      54.7000       0.00000
      54.8000       0.00000
      54.9000       0.00000
      55.0000       0.00000
      55.1000       0.00000
      55.2000       0.00000
      55.3000       0.00000
      55.4000       0.00000
      55.5000       0.00000
      55.6000       0.00000
      55.7000       0.00000
      55.8000       0.00000
      55.9000       0.00000
      56.0000       0.00000
      56.1000       0.00000
      56.2000       0.00000
      56.3000       0.00000
      56.4000       0.00000
      56.5000       0.00000
      56.6000       0.00000
      56.7000       0.00000
      56.8000       0.00000
      56.9000       0.00000
      57.0000       0.00000
      57.1000       0.00000
      57.2000       0.00000
      57.3000       0.00000
      57.4000       0.00000
      57.5000       0.00000
      57.6000       0.00000
      57.7000       0.00000
      57.8000       0.00000
      57.9000       0.00000
      58.0000       0.00000
      58.1000       0.00000
      58.2000       0.00000
      58.3000       0.00000
      58.4000       0.00000
      58.5000       0.00000
      58.6000       0.00000
      58.7000       0.00000
      58.8000       0.00000
      58.9000       0.00000
      59.0000       0.00000
      59.1000       0.00000
      59.2000       0.00000
      59.3000       0.00000
      59.4000       0.00000
      59.5000       0.00000
      59.6000       0.00000
      59.7000       0.00000
      59.8000       0.00000
      59.9000       0.00000
      60.0000       0.00000
      60.1000       0.00000
      60.2000       0.00000
      60.3000       0.00000
      60.4000       0.00000
      60.5000       0.00000
      60.6000       0.00000
      60.7000       0.00000
      60.8000       0.00000
      60.9000       0.00000
      61.0000       0.00000
      61.1000       0.00000
      61.2000       0.00000
      61.3000       0.00000
      61.4000       0.00000
      61.5000       0.00000
      61.6000       0.00000
      61.7000       0.00000
      61.8000       0.00000
      61.9000       0.00000
      62.0000       0.00000
      62.1000       0.00000
      62.2000       0.00000
      62.3000       0.00000
      62.4000       0.00000
      62.5000       0.00000
      62.6000       0.00000
      62.7000       0.00000
      62.8000       0.00000
      62.9000       0.00000
      63.0000       0.00000
      63.1000       0.00000
      63.2000       0.00000
      63.3000       0.00000
      63.4000       0.00000
      63.5000       0.00000
      63.6000       0.00000
      63.7000       0.00000
      63.8000       0.00000
      63.9000       0.00000
      64.0000       0.00000
      64.1000       0.00000
      64.2000       0.00000
      64.3000       0.00000
      64.4000       0.00000
      64.5000       0.00000
      64.6000       0.00000
      64.7000       0.00000
      64.8000       0.00000
      64.9000       0.00000
      65.0000       0.00000
      65.1000       0.00000
      65.2000       0.00000
      65.3000       0.00000
      65.4000       0.00000
      65.5000       0.00000
      65.6000       0.00000
      65.7000       0.00000
      65.8000       0.00000
      65.9000       0.00000
      66.0000       0.00000
      66.1000       0.00000
      66.2000       0.00000
      66.3000       0.00000
      66.4000       0.00000
      66.5000       0.00000
      66.6000       0.00000
      66.7000       0.00000
      66.8000       0.00000
      66.9000       0.00000
      67.0000       0.00000
      67.1000       0.00000
      67.2000       0.00000
      67.3000       0.00000
      67.4000       0.00000
      67.5000       0.00000
      67.6000       0.00000
      67.7000       0.00000
      67.8000       0.00000
      67.9000       0.00000
      68.0000       0.00000
      68.1000       0.00000
      68.2000       0.00000
      68.3000       0.00000
      68.4000       0.00000
      68.5000       0.00000
      68.6000       0.00000
      68.7000       0.00000
      68.8000       0.00000
      68.9000       0.00000
      69.0000       0.00000
      69.1000       0.00000
      69.2000       0.00000
      69.3000       0.00000
      69.4000       0.00000
      69.5000       0.00000
      69.6000       0.00000
      69.7000       0.00000
      69.8000       0.00000
      69.9000       0.00000
      70.0000       0.00000
      70.1000       0.00000
      70.2000       0.00000
      70.3000       0.00000
      70.4000       0.00000
      70.5000       0.00000
      70.6000       0.00000
      70.7000       0.00000
      70.8000       0.00000
      70.9000       0.00000
      71.0000       0.00000
      71.1000       0.00000
      71.2000       0.00000
      71.3000       0.00000
      71.4000       0.00000
      71.5000       0.00000
      71.6000       0.00000
      71.7000       0.00000
      71.8000       0.00000
      71.9000       0.00000
      72.0000       0.00000
