Filter Be-med
observation_date 2022-09-22 22:45:45
wavelength effective area
      1.00000   2.78114e-10
      1.10000   7.93773e-10
      1.20000   2.06297e-09
      1.30000   4.93135e-09
      1.40000   1.11851e-08
      1.50000   2.38505e-08
      1.60000   4.82553e-08
      1.70000   9.36186e-08
      1.80000   1.74158e-07
      1.90000   3.12736e-07
      2.00000   5.43142e-07
      2.10000   9.16355e-07
      2.20000   1.50905e-06
      2.30000   2.42235e-06
      2.40000   3.79696e-06
      2.50000   5.79273e-06
      2.60000   8.82341e-06
      2.70000   1.31274e-05
      2.80000   1.91539e-05
      2.90000   2.76537e-05
      3.00000   3.92944e-05
      3.10000   5.51078e-05
      3.20000   7.64250e-05
      3.30000   0.000104886
      3.40000   0.000142412
      3.50000   0.000191446
      3.60000   0.000256105
      3.70000   0.000338882
      3.80000   0.000446421
      3.90000   0.000584650
      4.00000   0.000760695
      4.10000   0.000984870
      4.20000    0.00127032
      4.30000    0.00163334
      4.40000    0.00209381
      4.50000    0.00267585
      4.60000    0.00340714
      4.70000    0.00433650
      4.80000    0.00551150
      4.90000    0.00691288
      5.00000    0.00889434
      5.10000     0.0112795
      5.20000     0.0143388
      5.30000     0.0180688
      5.40000     0.0227202
      5.50000     0.0286070
      5.60000     0.0349011
      5.70000     0.0448405
      5.80000     0.0519193
      5.90000     0.0782663
      6.00000      0.103827
      6.10000      0.130890
      6.20000      0.158499
      6.30000      0.183903
      6.40000      0.204576
      6.50000      0.218410
      6.60000      0.222517
      6.70000      0.225641
      6.80000      0.222165
      6.90000      0.286405
      7.00000      0.305867
      7.10000      0.317482
      7.20000      0.324880
      7.30000      0.329233
      7.40000      0.330568
      7.50000      0.329908
      7.60000      0.327414
      7.70000      0.322345
      7.80000      0.314262
      7.90000      0.306517
      8.00000      0.432325
      8.10000      0.461548
      8.20000      0.457056
      8.30000      0.450369
      8.40000      0.441699
      8.50000      0.432173
      8.60000      0.421762
      8.70000      0.410788
      8.80000      0.399220
      8.90000      0.387279
      9.00000      0.375011
      9.10000      0.362491
      9.20000      0.349809
      9.30000      0.337031
      9.40000      0.324193
      9.50000      0.311345
      9.60000      0.298568
      9.70000      0.285868
      9.80000      0.273301
      9.90000      0.260938
      10.0000      0.248807
      10.1000      0.236901
      10.2000      0.225243
      10.3000      0.213872
      10.4000      0.202809
      10.5000      0.192041
      10.6000      0.181583
      10.7000      0.171447
      10.8000      0.161658
      10.9000      0.152244
      11.0000      0.143175
      11.1000      0.134459
      11.2000      0.126096
      11.3000      0.118088
      11.4000      0.110429
      11.5000      0.103118
      11.6000     0.0961519
      11.7000     0.0895390
      11.8000     0.0832584
      11.9000     0.0772884
      12.0000     0.0715532
      12.1000     0.0663652
      12.2000     0.0625915
      12.3000     0.0583530
      12.4000     0.0539284
      12.5000     0.0497386
      12.6000     0.0457989
      12.7000     0.0421081
      12.8000     0.0386576
      12.9000     0.0354367
      13.0000     0.0324368
      13.1000     0.0296479
      13.2000     0.0270634
      13.3000     0.0246849
      13.4000     0.0224939
      13.5000     0.0204707
      13.6000     0.0186167
      13.7000     0.0169080
      13.8000     0.0153349
      13.9000     0.0138888
      14.0000     0.0125611
      14.1000     0.0113415
      14.2000     0.0102219
      14.3000    0.00919616
      14.4000    0.00825900
      14.5000    0.00740905
      14.6000    0.00664265
      14.7000    0.00594514
      14.8000    0.00531120
      14.9000    0.00473582
      15.0000    0.00421439
      15.1000    0.00374271
      15.2000    0.00332533
      15.3000    0.00295007
      15.4000    0.00261160
      15.5000    0.00230678
      15.6000    0.00203283
      15.7000    0.00179050
      15.8000    0.00157717
      15.9000    0.00138581
      16.0000    0.00121445
      16.1000    0.00106134
      16.2000   0.000928847
      16.3000   0.000811831
      16.4000   0.000707364
      16.5000   0.000614322
      16.6000   0.000533462
      16.7000   0.000463560
      16.8000   0.000401338
      16.9000   0.000346123
      17.0000   0.000298635
      17.1000   0.000258039
      17.2000   0.000222174
      17.3000   0.000190608
      17.4000   0.000164164
      17.5000   0.000141084
      17.6000   0.000120776
      17.7000   0.000103506
      17.8000   8.95007e-05
      17.9000   7.70569e-05
      18.0000   6.59979e-05
      18.1000   5.68853e-05
      18.2000   4.87248e-05
      18.3000   4.13817e-05
      18.4000   3.51258e-05
      18.5000   2.96908e-05
      18.6000   2.48380e-05
      18.7000   2.07472e-05
      18.8000   1.73229e-05
      18.9000   1.43226e-05
      19.0000   1.18929e-05
      19.1000   9.86999e-06
      19.2000   8.10073e-06
      19.3000   6.69840e-06
      19.4000   5.53117e-06
      19.5000   4.52219e-06
      19.6000   3.76804e-06
      19.7000   3.11360e-06
      19.8000   2.54756e-06
      19.9000   2.11705e-06
      20.0000   1.73399e-06
      20.1000   1.41987e-06
      20.2000   1.16887e-06
      20.3000   9.47148e-07
      20.4000   7.77665e-07
      20.5000   6.32864e-07
      20.6000   5.10052e-07
      20.7000   4.17613e-07
      20.8000   3.35198e-07
      20.9000   2.71938e-07
      21.0000   2.19282e-07
      21.1000   1.74593e-07
      21.2000   1.41686e-07
      21.3000   1.12213e-07
      21.4000   9.03419e-08
      21.5000   7.18506e-08
      21.6000   5.67778e-08
      21.7000   4.54011e-08
      21.8000   3.52669e-08
      21.9000   2.82744e-08
      22.0000   2.19920e-08
      22.1000   1.73428e-08
      22.2000   1.35389e-08
      22.3000   1.04692e-08
      22.4000   8.09861e-09
      22.5000   5.95752e-09
      22.6000   4.28852e-09
      22.7000   2.91138e-09
      22.8000   2.80970e-09
      22.9000   2.78973e-09
      23.0000   2.84113e-09
      23.1000   2.64830e-09
      23.2000   2.23233e-09
      23.3000   1.82302e-09
      23.4000   1.41804e-09
      23.5000   1.12677e-09
      23.6000   8.63977e-10
      23.7000   6.87536e-10
      23.8000   5.20782e-10
      23.9000   4.14264e-10
      24.0000   3.13322e-10
      24.1000   2.47193e-10
      24.2000   1.86548e-10
      24.3000   1.46114e-10
      24.4000   1.10059e-10
      24.5000   8.56180e-11
      24.6000   6.43242e-11
      24.7000   4.97480e-11
      24.8000   3.72619e-11
      24.9000   2.86730e-11
      25.0000   2.13905e-11
      25.1000   1.63949e-11
      25.2000   1.21699e-11
      25.3000   9.30026e-12
      25.4000   6.86037e-12
      25.5000   5.23396e-12
      25.6000   3.83200e-12
      25.7000   2.92227e-12
      25.8000   2.12035e-12
      25.9000   1.61827e-12
      26.0000   1.16187e-12
      26.1000   8.88504e-13
      26.2000   6.30171e-13
      26.3000   4.83455e-13
      26.4000   3.38216e-13
      26.5000   2.60589e-13
      26.6000   1.83380e-13
      26.7000   1.39057e-13
      26.8000   9.88141e-14
      26.9000   7.34227e-14
      27.0000   5.27493e-14
      27.1000   3.83171e-14
      27.2000   2.78559e-14
      27.3000   1.97680e-14
      27.4000   1.46209e-14
      27.5000   1.01580e-14
      27.6000   7.59360e-15
      27.7000   5.11664e-15
      27.8000   3.87578e-15
      27.9000   2.64161e-15
      28.0000   1.94842e-15
      28.1000   1.36295e-15
      28.2000   9.64820e-16
      28.3000   6.91784e-16
      28.4000   4.70204e-16
      28.5000   3.45074e-16
      28.6000   2.25353e-16
      28.7000   1.69032e-16
      28.8000   1.13023e-16
      28.9000   8.12548e-17
      29.0000   5.64785e-17
      29.1000   3.82917e-17
      29.2000   2.75337e-17
      29.3000   1.76785e-17
      29.4000   1.30960e-17
      29.5000   8.53921e-18
      29.6000   6.07760e-18
      29.7000   4.17429e-18
      29.8000   2.75211e-18
      29.9000   1.97264e-18
      30.0000   1.21582e-18
      30.1000   9.03036e-19
      30.2000   5.92022e-19
      30.3000   4.04204e-19
      30.4000   2.86959e-19
      30.5000   1.84357e-19
      30.6000   1.34250e-19
      30.7000   8.44286e-20
      30.8000   5.84504e-20
      30.9000   3.96953e-20
      31.0000   2.46477e-20
      31.1000   1.78305e-20
      31.2000   1.10525e-20
      31.3000   7.77579e-21
      31.4000   5.25809e-21
      31.5000   3.26224e-21
      31.6000   2.34718e-21
      31.7000   1.43744e-21
      31.8000   9.95715e-22
      31.9000   6.72781e-22
      32.0000   4.05528e-22
      32.1000   2.95569e-22
      32.2000   1.86250e-22
      32.3000   1.25823e-22
      32.4000   8.70330e-23
      32.5000   5.12116e-23
      32.6000   3.77491e-23
      32.7000   2.43643e-23
      32.8000   1.54664e-23
      32.9000   1.09197e-23
      33.0000   6.39975e-24
      33.1000   4.53318e-24
      33.2000   3.03285e-24
      33.3000   1.77537e-24
      33.4000   1.28830e-24
      33.5000   8.04000e-25
      33.6000   5.07724e-25
      33.7000   3.54193e-25
      33.8000   2.01519e-25
      33.9000   1.41270e-25
      34.0000   9.40116e-26
      34.1000   5.24985e-26
      34.2000   3.82281e-26
      34.3000   2.40332e-26
      34.4000   1.42317e-26
      34.5000   1.00525e-26
      34.6000   5.89577e-27
      34.7000   3.76136e-27
      34.8000   2.56821e-27
      34.9000   1.38140e-27
      35.0000   9.68527e-28
      35.1000   6.37178e-28
      35.2000   3.33327e-28
      35.3000   2.43272e-28
      35.4000   1.53697e-28
      35.5000   8.33218e-29
      35.6000   5.96365e-29
      35.7000   3.60778e-29
      35.8000   2.03344e-29
      35.9000   1.42769e-29
      36.0000   8.25179e-30
      36.1000   4.84512e-30
      36.2000   3.34001e-30
      36.3000   1.84299e-30
      36.4000   1.12759e-30
      36.5000   7.64386e-31
      36.6000   4.03159e-31
      36.7000   2.56366e-31
      36.8000   1.71292e-31
      36.9000   8.66837e-32
      37.0000   5.69442e-32
      37.1000   3.76142e-32
      37.2000   1.83887e-32
      37.3000   1.23549e-32
      37.4000   8.09767e-33
      37.5000   3.86387e-33
      37.6000   2.61810e-33
      37.7000   1.70994e-33
      37.8000   8.06798e-34
      37.9000   5.41782e-34
      38.0000   3.54161e-34
      38.1000   1.67571e-34
      38.2000   1.09382e-34
      38.3000   7.18743e-35
      38.4000   3.45724e-35
      38.5000   2.15147e-35
      38.6000   1.42706e-35
      38.7000   7.06632e-36
      38.8000   4.12041e-36
      38.9000   2.76892e-36
      39.0000   1.42485e-36
      39.1000   7.67682e-37
      39.2000   5.24151e-37
      39.3000   2.81959e-37
      39.4000   1.38765e-37
      39.5000   9.61692e-38
      39.6000   5.38119e-38
      39.7000   2.36094e-38
      39.8000   1.66858e-38
      39.9000   9.80047e-39
      40.0000   3.87435e-39
      40.1000   2.79503e-39
      40.2000   1.72170e-39
      40.3000   6.54465e-40
      40.4000   4.52154e-40
      40.5000   2.91256e-40
      40.6000   1.31253e-40
      40.7000   7.04587e-41
      40.8000   4.72952e-41
      40.9000   2.42565e-41
      41.0000   1.05504e-41
      41.1000   7.35121e-42
      41.2000   4.17307e-42
      41.3000   1.51761e-42
      41.4000   1.09301e-42
      41.5000   6.71222e-43
      41.6000   2.55036e-43
      41.7000   1.52742e-43
      41.8000   9.94922e-44
      41.9000   4.48416e-44
      42.0000   2.24208e-44
      42.1000   1.54143e-44
      42.2000   7.00649e-45
      42.3000   2.80260e-45
      42.4000   2.80260e-45
      42.5000   2.80260e-45
      42.6000  -2.80260e-45
      42.7000       0.00000
      42.8000       0.00000
      42.9000       0.00000
      43.0000       0.00000
      43.1000       0.00000
      43.2000       0.00000
      43.3000       0.00000
      43.4000       0.00000
      43.5000       0.00000
      43.6000       0.00000
      43.7000       0.00000
      43.8000       0.00000
      43.9000       0.00000
      44.0000       0.00000
      44.1000       0.00000
      44.2000       0.00000
      44.3000       0.00000
      44.4000       0.00000
      44.5000       0.00000
      44.6000       0.00000
      44.7000       0.00000
      44.8000       0.00000
      44.9000       0.00000
      45.0000       0.00000
      45.1000       0.00000
      45.2000       0.00000
      45.3000       0.00000
      45.4000       0.00000
      45.5000       0.00000
      45.6000       0.00000
      45.7000       0.00000
      45.8000       0.00000
      45.9000       0.00000
      46.0000       0.00000
      46.1000       0.00000
      46.2000       0.00000
      46.3000       0.00000
      46.4000       0.00000
      46.5000       0.00000
      46.6000       0.00000
      46.7000       0.00000
      46.8000       0.00000
      46.9000       0.00000
      47.0000       0.00000
      47.1000       0.00000
      47.2000       0.00000
      47.3000       0.00000
      47.4000       0.00000
      47.5000       0.00000
      47.6000       0.00000
      47.7000       0.00000
      47.8000       0.00000
      47.9000       0.00000
      48.0000       0.00000
      48.1000       0.00000
      48.2000       0.00000
      48.3000       0.00000
      48.4000       0.00000
      48.5000       0.00000
      48.6000       0.00000
      48.7000       0.00000
      48.8000       0.00000
      48.9000       0.00000
      49.0000       0.00000
      49.1000       0.00000
      49.2000       0.00000
      49.3000       0.00000
      49.4000       0.00000
      49.5000       0.00000
      49.6000       0.00000
      49.7000       0.00000
      49.8000       0.00000
      49.9000       0.00000
      50.0000       0.00000
      50.1000       0.00000
      50.2000       0.00000
      50.3000       0.00000
      50.4000       0.00000
      50.5000       0.00000
      50.6000       0.00000
      50.7000       0.00000
      50.8000       0.00000
      50.9000       0.00000
      51.0000       0.00000
      51.1000       0.00000
      51.2000       0.00000
      51.3000       0.00000
      51.4000       0.00000
      51.5000       0.00000
      51.6000       0.00000
      51.7000       0.00000
      51.8000       0.00000
      51.9000       0.00000
      52.0000       0.00000
      52.1000       0.00000
      52.2000       0.00000
      52.3000       0.00000
      52.4000       0.00000
      52.5000       0.00000
      52.6000       0.00000
      52.7000       0.00000
      52.8000       0.00000
      52.9000       0.00000
      53.0000       0.00000
      53.1000       0.00000
      53.2000       0.00000
      53.3000       0.00000
      53.4000       0.00000
      53.5000       0.00000
      53.6000       0.00000
      53.7000       0.00000
      53.8000       0.00000
      53.9000       0.00000
      54.0000       0.00000
      54.1000       0.00000
      54.2000       0.00000
      54.3000       0.00000
      54.4000       0.00000
      54.5000       0.00000
      54.6000       0.00000
      54.7000       0.00000
      54.8000       0.00000
      54.9000       0.00000
      55.0000       0.00000
      55.1000       0.00000
      55.2000       0.00000
      55.3000       0.00000
      55.4000       0.00000
      55.5000       0.00000
      55.6000       0.00000
      55.7000       0.00000
      55.8000       0.00000
      55.9000       0.00000
      56.0000       0.00000
      56.1000       0.00000
      56.2000       0.00000
      56.3000       0.00000
      56.4000       0.00000
      56.5000       0.00000
      56.6000       0.00000
      56.7000       0.00000
      56.8000       0.00000
      56.9000       0.00000
      57.0000       0.00000
      57.1000       0.00000
      57.2000       0.00000
      57.3000       0.00000
      57.4000       0.00000
      57.5000       0.00000
      57.6000       0.00000
      57.7000       0.00000
      57.8000       0.00000
      57.9000       0.00000
      58.0000       0.00000
      58.1000       0.00000
      58.2000       0.00000
      58.3000       0.00000
      58.4000       0.00000
      58.5000       0.00000
      58.6000       0.00000
      58.7000       0.00000
      58.8000       0.00000
      58.9000       0.00000
      59.0000       0.00000
      59.1000       0.00000
      59.2000       0.00000
      59.3000       0.00000
      59.4000       0.00000
      59.5000       0.00000
      59.6000       0.00000
      59.7000       0.00000
      59.8000       0.00000
      59.9000       0.00000
      60.0000       0.00000
      60.1000       0.00000
      60.2000       0.00000
      60.3000       0.00000
      60.4000       0.00000
      60.5000       0.00000
      60.6000       0.00000
      60.7000       0.00000
      60.8000       0.00000
      60.9000       0.00000
      61.0000       0.00000
      61.1000       0.00000
      61.2000       0.00000
      61.3000       0.00000
      61.4000       0.00000
      61.5000       0.00000
      61.6000       0.00000
      61.7000       0.00000
      61.8000       0.00000
      61.9000       0.00000
      62.0000       0.00000
      62.1000       0.00000
      62.2000       0.00000
      62.3000       0.00000
      62.4000       0.00000
      62.5000       0.00000
      62.6000       0.00000
      62.7000       0.00000
      62.8000       0.00000
      62.9000       0.00000
      63.0000       0.00000
      63.1000       0.00000
      63.2000       0.00000
      63.3000       0.00000
      63.4000       0.00000
      63.5000       0.00000
      63.6000       0.00000
      63.7000       0.00000
      63.8000       0.00000
      63.9000       0.00000
      64.0000       0.00000
      64.1000       0.00000
      64.2000       0.00000
      64.3000       0.00000
      64.4000       0.00000
      64.5000       0.00000
      64.6000       0.00000
      64.7000       0.00000
      64.8000       0.00000
      64.9000       0.00000
      65.0000       0.00000
      65.1000       0.00000
      65.2000       0.00000
      65.3000       0.00000
      65.4000       0.00000
      65.5000       0.00000
      65.6000       0.00000
      65.7000       0.00000
      65.8000       0.00000
      65.9000       0.00000
      66.0000       0.00000
      66.1000       0.00000
      66.2000       0.00000
      66.3000       0.00000
      66.4000       0.00000
      66.5000       0.00000
      66.6000       0.00000
      66.7000       0.00000
      66.8000       0.00000
      66.9000       0.00000
      67.0000       0.00000
      67.1000       0.00000
      67.2000       0.00000
      67.3000       0.00000
      67.4000       0.00000
      67.5000       0.00000
      67.6000       0.00000
      67.7000       0.00000
      67.8000       0.00000
      67.9000       0.00000
      68.0000       0.00000
      68.1000       0.00000
      68.2000       0.00000
      68.3000       0.00000
      68.4000       0.00000
      68.5000       0.00000
      68.6000       0.00000
      68.7000       0.00000
      68.8000       0.00000
      68.9000       0.00000
      69.0000       0.00000
      69.1000       0.00000
      69.2000       0.00000
      69.3000       0.00000
      69.4000       0.00000
      69.5000       0.00000
      69.6000       0.00000
      69.7000       0.00000
      69.8000       0.00000
      69.9000       0.00000
      70.0000       0.00000
      70.1000       0.00000
      70.2000       0.00000
      70.3000       0.00000
      70.4000       0.00000
      70.5000       0.00000
      70.6000       0.00000
      70.7000       0.00000
      70.8000       0.00000
      70.9000       0.00000
      71.0000       0.00000
      71.1000       0.00000
      71.2000       0.00000
      71.3000       0.00000
      71.4000       0.00000
      71.5000       0.00000
      71.6000       0.00000
      71.7000       0.00000
      71.8000       0.00000
      71.9000       0.00000
      72.0000       0.00000
