Filter: Al-poly/Be-thick
observation_date 22-Sept-2006 22:40:45
wavelength effective area 
      1.00000   2.73201e-10
      1.10000   7.76697e-10
      1.20000   2.00876e-09
      1.30000   4.77344e-09
      1.40000   1.07506e-08
      1.50000   2.27334e-08
      1.60000   4.55527e-08
      1.70000   8.73942e-08
      1.80000   1.60519e-07
      1.90000   2.84105e-07
      2.00000   4.85474e-07
      2.10000   8.04381e-07
      2.20000   1.29820e-06
      2.30000   2.03793e-06
      2.40000   3.11706e-06
      2.50000   4.63027e-06
      2.60000   6.84998e-06
      2.70000   9.87293e-06
      2.80000   1.39198e-05
      2.90000   1.93600e-05
      3.00000   2.64268e-05
      3.10000   3.55097e-05
      3.20000   4.70420e-05
      3.30000   6.14726e-05
      3.40000   7.92173e-05
      3.50000   0.000100740
      3.60000   0.000126983
      3.70000   0.000157815
      3.80000   0.000194465
      3.90000   0.000237299
      4.00000   0.000286576
      4.10000   0.000343006
      4.20000   0.000407814
      4.30000   0.000481338
      4.40000   0.000563975
      4.50000   0.000655937
      4.60000   0.000756933
      4.70000   0.000868873
      4.80000   0.000990862
      4.90000    0.00111090
      5.00000    0.00126968
      5.10000    0.00142510
      5.20000    0.00159288
      5.30000    0.00175815
      5.40000    0.00192388
      5.50000    0.00209701
      5.60000    0.00220381
      5.70000    0.00242602
      5.80000    0.00238643
      5.90000    0.00304346
      6.00000    0.00339722
      6.10000    0.00358148
      6.20000    0.00361511
      6.30000    0.00347834
      6.40000    0.00318920
      6.50000    0.00278918
      6.60000    0.00231338
      6.70000    0.00188870
      6.80000    0.00149518
      6.90000    0.00153811
      7.00000    0.00130321
      7.10000    0.00106523
      7.20000   0.000851636
      7.30000   0.000668549
      7.40000   0.000518440
      7.50000   0.000395965
      7.60000   0.000297536
      7.70000   0.000221504
      7.80000   0.000161560
      7.90000   0.000116691
      8.00000   0.000141168
      8.10000   0.000110536
      8.20000   8.02923e-05
      8.30000   5.72958e-05
      8.40000   4.07697e-05
      8.50000   2.84178e-05
      8.60000   1.98355e-05
      8.70000   1.35279e-05
      8.80000   9.26304e-06
      8.90000   6.21796e-06
      9.00000   4.14367e-06
      9.10000   2.74457e-06
      9.20000   1.77546e-06
      9.30000   1.15843e-06
      9.40000   7.42766e-07
      9.50000   4.64911e-07
      9.60000   2.94908e-07
      9.70000   1.83703e-07
      9.80000   1.11877e-07
      9.90000   6.80358e-08
      10.0000   4.13328e-08
      10.1000   2.46199e-08
      10.2000   1.43454e-08
      10.3000   8.34474e-09
      10.4000   4.86890e-09
      10.5000   2.79123e-09
      10.6000   1.57009e-09
      10.7000   8.65218e-10
      10.8000   4.72617e-10
      10.9000   2.61396e-10
      11.0000   1.42359e-10
      11.1000   7.63208e-11
      11.2000   4.02688e-11
      11.3000   2.09016e-11
      11.4000   1.06690e-11
      11.5000   5.35483e-12
      11.6000   2.64291e-12
      11.7000   1.32730e-12
      11.8000   6.57405e-13
      11.9000   3.21143e-13
      12.0000   1.54649e-13
      12.1000   7.34526e-14
      12.2000   3.51858e-14
      12.3000   1.64681e-14
      12.4000   7.54083e-15
      12.5000   3.40398e-15
      12.6000   1.51528e-15
      12.7000   6.65276e-16
      12.8000   2.87964e-16
      12.9000   1.22808e-16
      13.0000   5.15765e-17
      13.1000   2.13184e-17
      13.2000   8.67108e-18
      13.3000   3.49152e-18
      13.4000   1.38810e-18
      13.5000   5.41790e-19
      13.6000   2.23700e-19
      13.7000   9.05342e-20
      13.8000   3.58351e-20
      13.9000   1.38470e-20
      14.0000   5.21492e-21
      14.1000   1.91032e-21
      14.2000   6.78387e-22
      14.3000   2.33412e-22
      14.4000   7.79100e-23
      14.5000   2.72639e-23
      14.6000   1.02477e-23
      14.7000   3.60967e-24
      14.8000   1.20266e-24
      14.9000   3.81063e-25
      15.0000   1.15217e-25
      15.1000   3.33226e-26
      15.2000   1.20431e-26
      15.3000   4.01939e-27
      15.4000   1.21731e-27
      15.5000   3.42025e-28
      15.6000   9.01734e-29
      15.7000   2.79966e-29
      15.8000   9.21515e-30
      15.9000   2.58611e-30
      16.0000   6.53674e-31
      16.1000   1.52407e-31
      16.2000   5.07459e-32
      16.3000   1.46091e-32
      16.4000   3.53195e-33
      16.5000   7.62895e-34
      16.6000   2.16893e-34
      16.7000   6.31030e-35
      16.8000   1.42196e-35
      16.9000   2.78051e-36
      17.0000   7.84336e-37
      17.1000   2.10352e-37
      17.2000   4.27065e-38
      17.3000   7.58035e-39
      17.4000   2.51718e-39
      17.5000   5.67632e-40
      17.6000   9.97052e-41
      17.7000   2.28215e-41
      17.8000   6.70942e-42
      17.9000   1.33544e-42
      18.0000   2.29813e-43
      18.1000   7.28675e-44
      18.2000   2.52234e-44
      18.3000   2.80260e-45
      18.4000   2.80260e-45
      18.5000       0.00000
      18.6000       0.00000
      18.7000       0.00000
      18.8000       0.00000
      18.9000       0.00000
      19.0000       0.00000
      19.1000       0.00000
      19.2000       0.00000
      19.3000       0.00000
      19.4000       0.00000
      19.5000       0.00000
      19.6000       0.00000
      19.7000       0.00000
      19.8000       0.00000
      19.9000       0.00000
      20.0000       0.00000
      20.1000       0.00000
      20.2000       0.00000
      20.3000       0.00000
      20.4000       0.00000
      20.5000       0.00000
      20.6000       0.00000
      20.7000       0.00000
      20.8000       0.00000
      20.9000       0.00000
      21.0000       0.00000
      21.1000       0.00000
      21.2000       0.00000
      21.3000       0.00000
      21.4000       0.00000
      21.5000       0.00000
      21.6000       0.00000
      21.7000       0.00000
      21.8000       0.00000
      21.9000       0.00000
      22.0000       0.00000
      22.1000       0.00000
      22.2000       0.00000
      22.3000       0.00000
      22.4000       0.00000
      22.5000       0.00000
      22.6000       0.00000
      22.7000       0.00000
      22.8000       0.00000
      22.9000       0.00000
      23.0000       0.00000
      23.1000       0.00000
      23.2000       0.00000
      23.3000       0.00000
      23.4000       0.00000
      23.5000       0.00000
      23.6000       0.00000
      23.7000       0.00000
      23.8000       0.00000
      23.9000       0.00000
      24.0000       0.00000
      24.1000       0.00000
      24.2000       0.00000
      24.3000       0.00000
      24.4000       0.00000
      24.5000       0.00000
      24.6000       0.00000
      24.7000       0.00000
      24.8000       0.00000
      24.9000       0.00000
      25.0000       0.00000
      25.1000       0.00000
      25.2000       0.00000
      25.3000       0.00000
      25.4000       0.00000
      25.5000       0.00000
      25.6000       0.00000
      25.7000       0.00000
      25.8000       0.00000
      25.9000       0.00000
      26.0000       0.00000
      26.1000       0.00000
      26.2000       0.00000
      26.3000       0.00000
      26.4000       0.00000
      26.5000       0.00000
      26.6000       0.00000
      26.7000       0.00000
      26.8000       0.00000
      26.9000       0.00000
      27.0000       0.00000
      27.1000       0.00000
      27.2000       0.00000
      27.3000       0.00000
      27.4000       0.00000
      27.5000       0.00000
      27.6000       0.00000
      27.7000       0.00000
      27.8000       0.00000
      27.9000       0.00000
      28.0000       0.00000
      28.1000       0.00000
      28.2000       0.00000
      28.3000       0.00000
      28.4000       0.00000
      28.5000       0.00000
      28.6000       0.00000
      28.7000       0.00000
      28.8000       0.00000
      28.9000       0.00000
      29.0000       0.00000
      29.1000       0.00000
      29.2000       0.00000
      29.3000       0.00000
      29.4000       0.00000
      29.5000       0.00000
      29.6000       0.00000
      29.7000       0.00000
      29.8000       0.00000
      29.9000       0.00000
      30.0000       0.00000
      30.1000       0.00000
      30.2000       0.00000
      30.3000       0.00000
      30.4000       0.00000
      30.5000       0.00000
      30.6000       0.00000
      30.7000       0.00000
      30.8000       0.00000
      30.9000       0.00000
      31.0000       0.00000
      31.1000       0.00000
      31.2000       0.00000
      31.3000       0.00000
      31.4000       0.00000
      31.5000       0.00000
      31.6000       0.00000
      31.7000       0.00000
      31.8000       0.00000
      31.9000       0.00000
      32.0000       0.00000
      32.1000       0.00000
      32.2000       0.00000
      32.3000       0.00000
      32.4000       0.00000
      32.5000       0.00000
      32.6000       0.00000
      32.7000       0.00000
      32.8000       0.00000
      32.9000       0.00000
      33.0000       0.00000
      33.1000       0.00000
      33.2000       0.00000
      33.3000       0.00000
      33.4000       0.00000
      33.5000       0.00000
      33.6000       0.00000
      33.7000       0.00000
      33.8000       0.00000
      33.9000       0.00000
      34.0000       0.00000
      34.1000       0.00000
      34.2000       0.00000
      34.3000       0.00000
      34.4000       0.00000
      34.5000       0.00000
      34.6000       0.00000
      34.7000       0.00000
      34.8000       0.00000
      34.9000       0.00000
      35.0000       0.00000
      35.1000       0.00000
      35.2000       0.00000
      35.3000       0.00000
      35.4000       0.00000
      35.5000       0.00000
      35.6000       0.00000
      35.7000       0.00000
      35.8000       0.00000
      35.9000       0.00000
      36.0000       0.00000
      36.1000       0.00000
      36.2000       0.00000
      36.3000       0.00000
      36.4000       0.00000
      36.5000       0.00000
      36.6000       0.00000
      36.7000       0.00000
      36.8000       0.00000
      36.9000       0.00000
      37.0000       0.00000
      37.1000       0.00000
      37.2000       0.00000
      37.3000       0.00000
      37.4000       0.00000
      37.5000       0.00000
      37.6000       0.00000
      37.7000       0.00000
      37.8000       0.00000
      37.9000       0.00000
      38.0000       0.00000
      38.1000       0.00000
      38.2000       0.00000
      38.3000       0.00000
      38.4000       0.00000
      38.5000       0.00000
      38.6000       0.00000
      38.7000       0.00000
      38.8000       0.00000
      38.9000       0.00000
      39.0000       0.00000
      39.1000       0.00000
      39.2000       0.00000
      39.3000       0.00000
      39.4000       0.00000
      39.5000       0.00000
      39.6000       0.00000
      39.7000       0.00000
      39.8000       0.00000
      39.9000       0.00000
      40.0000       0.00000
      40.1000       0.00000
      40.2000       0.00000
      40.3000       0.00000
      40.4000       0.00000
      40.5000       0.00000
      40.6000       0.00000
      40.7000       0.00000
      40.8000       0.00000
      40.9000       0.00000
      41.0000       0.00000
      41.1000       0.00000
      41.2000       0.00000
      41.3000       0.00000
      41.4000       0.00000
      41.5000       0.00000
      41.6000       0.00000
      41.7000       0.00000
      41.8000       0.00000
      41.9000       0.00000
      42.0000       0.00000
      42.1000       0.00000
      42.2000       0.00000
      42.3000       0.00000
      42.4000       0.00000
      42.5000       0.00000
      42.6000       0.00000
      42.7000       0.00000
      42.8000       0.00000
      42.9000       0.00000
      43.0000       0.00000
      43.1000       0.00000
      43.2000       0.00000
      43.3000       0.00000
      43.4000       0.00000
      43.5000       0.00000
      43.6000       0.00000
      43.7000       0.00000
      43.8000       0.00000
      43.9000       0.00000
      44.0000       0.00000
      44.1000       0.00000
      44.2000       0.00000
      44.3000       0.00000
      44.4000       0.00000
      44.5000       0.00000
      44.6000       0.00000
      44.7000       0.00000
      44.8000       0.00000
      44.9000       0.00000
      45.0000       0.00000
      45.1000       0.00000
      45.2000       0.00000
      45.3000       0.00000
      45.4000       0.00000
      45.5000       0.00000
      45.6000       0.00000
      45.7000       0.00000
      45.8000       0.00000
      45.9000       0.00000
      46.0000       0.00000
      46.1000       0.00000
      46.2000       0.00000
      46.3000       0.00000
      46.4000       0.00000
      46.5000       0.00000
      46.6000       0.00000
      46.7000       0.00000
      46.8000       0.00000
      46.9000       0.00000
      47.0000       0.00000
      47.1000       0.00000
      47.2000       0.00000
      47.3000       0.00000
      47.4000       0.00000
      47.5000       0.00000
      47.6000       0.00000
      47.7000       0.00000
      47.8000       0.00000
      47.9000       0.00000
      48.0000       0.00000
      48.1000       0.00000
      48.2000       0.00000
      48.3000       0.00000
      48.4000       0.00000
      48.5000       0.00000
      48.6000       0.00000
      48.7000       0.00000
      48.8000       0.00000
      48.9000       0.00000
      49.0000       0.00000
      49.1000       0.00000
      49.2000       0.00000
      49.3000       0.00000
      49.4000       0.00000
      49.5000       0.00000
      49.6000       0.00000
      49.7000       0.00000
      49.8000       0.00000
      49.9000       0.00000
      50.0000       0.00000
      50.1000       0.00000
      50.2000       0.00000
      50.3000       0.00000
      50.4000       0.00000
      50.5000       0.00000
      50.6000       0.00000
      50.7000       0.00000
      50.8000       0.00000
      50.9000       0.00000
      51.0000       0.00000
      51.1000       0.00000
      51.2000       0.00000
      51.3000       0.00000
      51.4000       0.00000
      51.5000       0.00000
      51.6000       0.00000
      51.7000       0.00000
      51.8000       0.00000
      51.9000       0.00000
      52.0000       0.00000
      52.1000       0.00000
      52.2000       0.00000
      52.3000       0.00000
      52.4000       0.00000
      52.5000       0.00000
      52.6000       0.00000
      52.7000       0.00000
      52.8000       0.00000
      52.9000       0.00000
      53.0000       0.00000
      53.1000       0.00000
      53.2000       0.00000
      53.3000       0.00000
      53.4000       0.00000
      53.5000       0.00000
      53.6000       0.00000
      53.7000       0.00000
      53.8000       0.00000
      53.9000       0.00000
      54.0000       0.00000
      54.1000       0.00000
      54.2000       0.00000
      54.3000       0.00000
      54.4000       0.00000
      54.5000       0.00000
      54.6000       0.00000
      54.7000       0.00000
      54.8000       0.00000
      54.9000       0.00000
      55.0000       0.00000
      55.1000       0.00000
      55.2000       0.00000
      55.3000       0.00000
      55.4000       0.00000
      55.5000       0.00000
      55.6000       0.00000
      55.7000       0.00000
      55.8000       0.00000
      55.9000       0.00000
      56.0000       0.00000
      56.1000       0.00000
      56.2000       0.00000
      56.3000       0.00000
      56.4000       0.00000
      56.5000       0.00000
      56.6000       0.00000
      56.7000       0.00000
      56.8000       0.00000
      56.9000       0.00000
      57.0000       0.00000
      57.1000       0.00000
      57.2000       0.00000
      57.3000       0.00000
      57.4000       0.00000
      57.5000       0.00000
      57.6000       0.00000
      57.7000       0.00000
      57.8000       0.00000
      57.9000       0.00000
      58.0000       0.00000
      58.1000       0.00000
      58.2000       0.00000
      58.3000       0.00000
      58.4000       0.00000
      58.5000       0.00000
      58.6000       0.00000
      58.7000       0.00000
      58.8000       0.00000
      58.9000       0.00000
      59.0000       0.00000
      59.1000       0.00000
      59.2000       0.00000
      59.3000       0.00000
      59.4000       0.00000
      59.5000       0.00000
      59.6000       0.00000
      59.7000       0.00000
      59.8000       0.00000
      59.9000       0.00000
      60.0000       0.00000
      60.1000       0.00000
      60.2000       0.00000
      60.3000       0.00000
      60.4000       0.00000
      60.5000       0.00000
      60.6000       0.00000
      60.7000       0.00000
      60.8000       0.00000
      60.9000       0.00000
      61.0000       0.00000
      61.1000       0.00000
      61.2000       0.00000
      61.3000       0.00000
      61.4000       0.00000
      61.5000       0.00000
      61.6000       0.00000
      61.7000       0.00000
      61.8000       0.00000
      61.9000       0.00000
      62.0000       0.00000
      62.1000       0.00000
      62.2000       0.00000
      62.3000       0.00000
      62.4000       0.00000
      62.5000       0.00000
      62.6000       0.00000
      62.7000       0.00000
      62.8000       0.00000
      62.9000       0.00000
      63.0000       0.00000
      63.1000       0.00000
      63.2000       0.00000
      63.3000       0.00000
      63.4000       0.00000
      63.5000       0.00000
      63.6000       0.00000
      63.7000       0.00000
      63.8000       0.00000
      63.9000       0.00000
      64.0000       0.00000
      64.1000       0.00000
      64.2000       0.00000
      64.3000       0.00000
      64.4000       0.00000
      64.5000       0.00000
      64.6000       0.00000
      64.7000       0.00000
      64.8000       0.00000
      64.9000       0.00000
      65.0000       0.00000
      65.1000       0.00000
      65.2000       0.00000
      65.3000       0.00000
      65.4000       0.00000
      65.5000       0.00000
      65.6000       0.00000
      65.7000       0.00000
      65.8000       0.00000
      65.9000       0.00000
      66.0000       0.00000
      66.1000       0.00000
      66.2000       0.00000
      66.3000       0.00000
      66.4000       0.00000
      66.5000       0.00000
      66.6000       0.00000
      66.7000       0.00000
      66.8000       0.00000
      66.9000       0.00000
      67.0000       0.00000
      67.1000       0.00000
      67.2000       0.00000
      67.3000       0.00000
      67.4000       0.00000
      67.5000       0.00000
      67.6000       0.00000
      67.7000       0.00000
      67.8000       0.00000
      67.9000       0.00000
      68.0000       0.00000
      68.1000       0.00000
      68.2000       0.00000
      68.3000       0.00000
      68.4000       0.00000
      68.5000       0.00000
      68.6000       0.00000
      68.7000       0.00000
      68.8000       0.00000
      68.9000       0.00000
      69.0000       0.00000
      69.1000       0.00000
      69.2000       0.00000
      69.3000       0.00000
      69.4000       0.00000
      69.5000       0.00000
      69.6000       0.00000
      69.7000       0.00000
      69.8000       0.00000
      69.9000       0.00000
      70.0000       0.00000
      70.1000       0.00000
      70.2000       0.00000
      70.3000       0.00000
      70.4000       0.00000
      70.5000       0.00000
      70.6000       0.00000
      70.7000       0.00000
      70.8000       0.00000
      70.9000       0.00000
      71.0000       0.00000
      71.1000       0.00000
      71.2000       0.00000
      71.3000       0.00000
      71.4000       0.00000
      71.5000       0.00000
      71.6000       0.00000
      71.7000       0.00000
      71.8000       0.00000
      71.9000       0.00000
      72.0000       0.00000
