Filter Be-thin
observation_date 07-Jan-2024 05:00:00
wavelength effective area 
      1.00000   2.78436e-10
      1.10000   7.94892e-10
      1.20000   2.06652e-09
      1.30000   4.94171e-09
      1.40000   1.12137e-08
      1.50000   2.39243e-08
      1.60000   4.84346e-08
      1.70000   9.40338e-08
      1.80000   1.75073e-07
      1.90000   3.14674e-07
      2.00000   5.47079e-07
      2.10000   9.24074e-07
      2.20000   1.52374e-06
      2.30000   2.44946e-06
      2.40000   3.84554e-06
      2.50000   5.87697e-06
      2.60000   8.96863e-06
      2.70000   1.33709e-05
      2.80000   1.95525e-05
      2.90000   2.82977e-05
      3.00000   4.03143e-05
      3.10000   5.66951e-05
      3.20000   7.88602e-05
      3.30000   0.000108573
      3.40000   0.000147919
      3.50000   0.000199568
      3.60000   0.000268004
      3.70000   0.000356075
      3.80000   0.000471112
      3.90000   0.000619832
      4.00000   0.000810394
      4.10000    0.00105459
      4.20000    0.00136748
      4.30000    0.00176810
      4.40000    0.00227989
      4.50000    0.00293162
      4.60000    0.00375682
      4.70000    0.00481388
      4.80000    0.00616171
      4.90000    0.00778514
      5.00000     0.0100945
      5.10000     0.0129039
      5.20000     0.0165426
      5.30000     0.0210269
      5.40000     0.0266815
      5.50000     0.0339136
      5.60000     0.0417807
      5.70000     0.0542236
      5.80000     0.0634597
      5.90000     0.0967184
      6.00000      0.129766
      6.10000      0.165520
      6.20000      0.202842
      6.30000      0.238261
      6.40000      0.268428
      6.50000      0.290356
      6.60000      0.299835
      6.70000      0.308399
      6.80000      0.308013
      6.90000      0.402995
      7.00000      0.437007
      7.10000      0.460799
      7.20000      0.479232
      7.30000      0.493810
      7.40000      0.504399
      7.50000      0.512344
      7.60000      0.517767
      7.70000      0.519324
      7.80000      0.516059
      7.90000      0.513341
      8.00000      0.738979
      8.10000      0.805183
      8.20000      0.814313
      8.30000      0.819653
      8.40000      0.821559
      8.50000      0.821980
      8.60000      0.820679
      8.70000      0.818236
      8.80000      0.814395
      8.90000      0.809595
      9.00000      0.803788
      9.10000      0.797039
      9.20000      0.789530
      9.30000      0.781198
      9.40000      0.772180
      9.50000      0.762541
      9.60000      0.752254
      9.70000      0.741426
      9.80000      0.730157
      9.90000      0.718487
      10.0000      0.706471
      10.1000      0.694137
      10.2000      0.681517
      10.3000      0.668602
      10.4000      0.655432
      10.5000      0.642037
      10.6000      0.628454
      10.7000      0.614709
      10.8000      0.600829
      10.9000      0.586854
      11.0000      0.572796
      11.1000      0.558692
      11.2000      0.544557
      11.3000      0.530420
      11.4000      0.516285
      11.5000      0.502164
      11.6000      0.488079
      11.7000      0.474011
      11.8000      0.460011
      11.9000      0.446001
      12.0000      0.431556
      12.1000      0.418777
      12.2000      0.413411
      12.3000      0.403710
      12.4000      0.391141
      12.5000      0.378492
      12.6000      0.365932
      12.7000      0.353533
      12.8000      0.341317
      12.9000      0.329294
      13.0000      0.317489
      13.1000      0.305914
      13.2000      0.294598
      13.3000      0.283600
      13.4000      0.272903
      13.5000      0.262495
      13.6000      0.252387
      13.7000      0.242539
      13.8000      0.232944
      13.9000      0.223611
      14.0000      0.214535
      14.1000      0.205696
      14.2000      0.197085
      14.3000      0.188706
      14.4000      0.180562
      14.5000      0.172668
      14.6000      0.165030
      14.7000      0.157622
      14.8000      0.150443
      14.9000      0.143490
      15.0000      0.136762
      15.1000      0.130258
      15.2000      0.124017
      15.3000      0.118001
      15.4000      0.112197
      15.5000      0.106602
      15.6000      0.101217
      15.7000     0.0960540
      15.8000     0.0911221
      15.9000     0.0863817
      16.0000     0.0818266
      16.1000     0.0774527
      16.2000     0.0732991
      16.3000     0.0693280
      16.4000     0.0655172
      16.5000     0.0618614
      16.6000     0.0583822
      16.7000     0.0550801
      16.8000     0.0519157
      16.9000     0.0488847
      17.0000     0.0460117
      17.1000     0.0433060
      17.2000     0.0407290
      17.3000     0.0382750
      17.4000     0.0359768
      17.5000     0.0337971
      17.6000     0.0317302
      17.7000     0.0298039
      17.8000     0.0280584
      17.9000     0.0263939
      18.0000     0.0247981
      18.1000     0.0233102
      18.2000     0.0218722
      18.3000     0.0204770
      18.4000     0.0191367
      18.5000     0.0178537
      18.6000     0.0166125
      18.7000     0.0154251
      18.8000     0.0143147
      18.9000     0.0132580
      19.0000     0.0122786
      19.1000     0.0113658
      19.2000     0.0104982
      19.3000    0.00970139
      19.4000    0.00896458
      19.5000    0.00827088
      19.6000    0.00765896
      19.7000    0.00708117
      19.8000    0.00653386
      19.9000    0.00604010
      20.0000    0.00556940
      20.1000    0.00513184
      20.2000    0.00473025
      20.3000    0.00434746
      20.4000    0.00400085
      20.5000    0.00367540
      20.6000    0.00336892
      20.7000    0.00309370
      20.8000    0.00283091
      20.9000    0.00259225
      21.0000    0.00237059
      21.1000    0.00216201
      21.2000    0.00197588
      21.3000    0.00179791
      21.4000    0.00163859
      21.5000    0.00148963
      21.6000    0.00135108
      21.7000    0.00122674
      21.8000    0.00110768
      21.9000    0.00100296
      22.0000   0.000902945
      22.1000   0.000813064
      22.2000   0.000729280
      22.3000   0.000650848
      22.4000   0.000572409
      22.5000   0.000494356
      22.6000   0.000396434
      22.7000   0.000323886
      22.8000   0.000365449
      22.9000   0.000423409
      23.0000   0.000500906
      23.1000   0.000532114
      23.2000   0.000521432
      23.3000   0.000489468
      23.4000   0.000447082
      23.5000   0.000408911
      23.6000   0.000371930
      23.7000   0.000338999
      23.8000   0.000306728
      23.9000   0.000279074
      24.0000   0.000252089
      24.1000   0.000228678
      24.2000   0.000206144
      24.3000   0.000186578
      24.4000   0.000167944
      24.5000   0.000151647
      24.6000   0.000136278
      24.7000   0.000122813
      24.8000   0.000110199
      24.9000   9.91210e-05
      25.0000   8.87909e-05
      25.1000   7.97340e-05
      25.2000   7.12987e-05
      25.3000   6.39265e-05
      25.4000   5.70509e-05
      25.5000   5.10869e-05
      25.6000   4.54975e-05
      25.7000   4.06970e-05
      25.8000   3.61595e-05
      25.9000   3.23159e-05
      26.0000   2.86382e-05
      26.1000   2.55754e-05
      26.2000   2.25983e-05
      26.3000   2.01725e-05
      26.4000   1.77677e-05
      26.5000   1.58560e-05
      26.6000   1.39570e-05
      26.7000   1.24185e-05
      26.8000   1.09319e-05
      26.9000   9.69106e-06
      27.0000   8.53220e-06
      27.1000   7.53099e-06
      27.2000   6.63163e-06
      27.3000   5.83632e-06
      27.4000   5.16869e-06
      27.5000   4.53965e-06
      27.6000   4.01206e-06
      27.7000   3.49470e-06
      27.8000   3.09089e-06
      27.9000   2.68983e-06
      28.0000   2.36944e-06
      28.1000   2.06638e-06
      28.2000   1.80844e-06
      28.3000   1.58096e-06
      28.4000   1.37394e-06
      28.5000   1.20433e-06
      28.6000   1.03883e-06
      28.7000   9.13340e-07
      28.8000   7.88727e-07
      28.9000   6.89377e-07
      29.0000   5.97661e-07
      29.1000   5.17590e-07
      29.2000   4.50554e-07
      29.3000   3.86430e-07
      29.4000   3.37796e-07
      29.5000   2.89512e-07
      29.6000   2.51788e-07
      29.7000   2.17019e-07
      29.8000   1.86526e-07
      29.9000   1.61675e-07
      30.0000   1.37281e-07
      30.1000   1.19655e-07
      30.2000   1.02158e-07
      30.3000   8.90917e-08
      30.4000   7.85809e-08
      30.5000   6.84066e-08
      30.6000   5.92669e-08
      30.7000   5.01951e-08
      30.8000   4.32488e-08
      30.9000   3.69715e-08
      31.0000   3.13436e-08
      31.1000   2.71185e-08
      31.2000   2.29253e-08
      31.3000   1.97933e-08
      31.4000   1.69050e-08
      31.5000   1.43199e-08
      31.6000   1.23466e-08
      31.7000   1.03884e-08
      31.8000   8.93103e-09
      31.9000   7.60674e-09
      32.0000   6.40607e-09
      32.1000   5.54274e-09
      32.2000   4.68605e-09
      32.3000   4.02031e-09
      32.4000   3.44093e-09
      32.5000   2.88618e-09
      32.6000   2.49808e-09
      32.7000   2.11293e-09
      32.8000   1.79325e-09
      32.9000   1.53695e-09
      33.0000   1.28262e-09
      33.1000   1.10386e-09
      33.2000   9.36368e-10
      33.3000   7.83163e-10
      33.4000   6.73537e-10
      33.5000   5.64734e-10
      33.6000   4.77635e-10
      33.7000   4.07068e-10
      33.8000   3.37022e-10
      33.9000   2.88704e-10
      34.0000   2.43674e-10
      34.1000   2.01654e-10
      34.2000   1.72980e-10
      34.3000   1.44511e-10
      34.4000   1.20672e-10
      34.5000   1.02711e-10
      34.6000   8.48800e-11
      34.7000   7.15788e-11
      34.8000   6.04190e-11
      34.9000   4.93391e-11
      35.0000   4.20563e-11
      35.1000   3.52100e-11
      35.2000   2.86903e-11
      35.3000   2.45026e-11
      35.4000   2.03452e-11
      35.5000   1.66743e-11
      35.6000   1.41577e-11
      35.7000   1.16594e-11
      35.8000   9.61034e-12
      35.9000   8.11393e-12
      36.0000   6.62843e-12
      36.1000   5.49315e-12
      36.2000   4.61312e-12
      36.3000   3.73954e-12
      36.4000   3.11429e-12
      36.5000   2.60245e-12
      36.6000   2.09441e-12
      36.7000   1.75136e-12
      36.8000   1.45704e-12
      36.9000   1.16490e-12
      37.0000   9.76979e-13
      37.1000   8.09664e-13
      37.2000   6.43588e-13
      37.3000   5.40595e-13
      37.4000   4.46603e-13
      37.5000   3.53317e-13
      37.6000   2.96722e-13
      37.7000   2.44562e-13
      37.8000   1.92797e-13
      37.9000   1.61552e-13
      38.0000   1.32956e-13
      38.1000   1.04575e-13
      38.2000   8.72281e-14
      38.3000   7.17409e-14
      38.4000   5.63709e-14
      38.5000   4.66902e-14
      38.6000   3.84131e-14
      38.7000   3.01991e-14
      38.8000   2.47737e-14
      38.9000   2.04085e-14
      39.0000   1.60765e-14
      39.1000   1.30275e-14
      39.2000   1.07552e-14
      39.3000   8.50031e-15
      39.4000   6.77948e-15
      39.5000   5.59930e-15
      39.6000   4.42828e-15
      39.7000   3.45802e-15
      39.8000   2.86655e-15
      39.9000   2.27965e-15
      40.0000   1.74340e-15
      40.1000   1.45186e-15
      40.2000   1.16257e-15
      40.3000   8.75580e-16
      40.4000   7.27506e-16
      40.5000   5.87009e-16
      40.6000   4.47606e-16
      40.7000   3.60357e-16
      40.8000   2.93133e-16
      40.9000   2.26441e-16
      41.0000   1.76273e-16
      41.1000   1.44626e-16
      41.2000   1.13232e-16
      41.3000   8.51085e-17
      41.4000   7.04532e-17
      41.5000   5.59123e-17
      41.6000   4.14877e-17
      41.7000   3.38589e-17
      41.8000   2.72310e-17
      41.9000   2.06558e-17
      42.0000   1.60374e-17
      42.1000   1.30661e-17
      42.2000   1.01183e-17
      42.3000   7.47926e-18
      42.4000   6.16992e-18
      42.5000   4.87090e-18
      42.6000   3.58236e-18
      42.7000   2.86499e-18
      42.8000   2.30257e-18
      42.9000   1.74460e-18
      43.0000   1.30729e-18
      43.1000   1.06800e-18
      43.2000   8.30636e-19
      43.3000   5.95190e-19
      43.4000   5.95314e-19
      43.5000   7.08851e-19
      43.6000   8.61326e-19
      43.7000   9.39193e-19
      43.8000   8.36634e-19
      43.9000   6.49453e-19
      44.0000   4.62774e-19
      44.1000   3.80851e-19
      44.2000   3.03643e-19
      44.3000   2.26652e-19
      44.4000   1.69463e-19
      44.5000   1.38223e-19
      44.6000   1.07069e-19
      44.7000   7.59998e-20
      44.8000   6.12924e-20
      44.9000   4.89291e-20
      45.0000   3.65993e-20
      45.1000   2.64825e-20
      45.2000   2.16736e-20
      45.3000   1.68781e-20
      45.4000   1.20952e-20
      45.5000   9.31949e-21
      45.6000   7.49185e-21
      45.7000   5.66926e-21
      45.8000   3.89392e-21
      45.9000   3.21169e-21
      46.0000   2.53127e-21
      46.1000   1.85271e-21
      46.2000   1.33278e-21
      46.3000   1.08475e-21
      46.4000   8.37418e-22
      46.5000   5.90739e-22
      46.6000   4.49259e-22
      46.7000   3.60438e-22
      46.8000   2.71860e-22
      46.9000   1.83518e-22
      47.0000   1.48658e-22
      47.1000   1.17508e-22
      47.2000   8.64432e-23
      47.3000   5.90248e-23
      47.4000   4.82978e-23
      47.5000   3.75990e-23
      47.6000   2.69295e-23
      47.7000   1.90023e-23
      47.8000   1.54008e-23
      47.9000   1.18085e-23
      48.0000   8.22625e-24
      48.1000   6.00401e-24
      48.2000   4.82203e-24
      48.3000   3.64317e-24
      48.4000   2.46749e-24
      48.5000   1.86150e-24
      48.6000   1.48263e-24
      48.7000   1.10477e-24
      48.8000   7.27880e-25
      48.9000   5.66178e-25
      49.0000   4.47704e-25
      49.1000   3.29550e-25
      49.2000   2.11705e-25
      49.3000   1.71868e-25
      49.4000   1.38861e-25
      49.5000   1.05941e-25
      49.6000   7.31079e-26
      49.7000   6.58322e-26
      49.8000   5.92047e-26
      49.9000   5.25950e-26
      50.0000   4.60031e-26
      50.1000   4.03464e-26
      50.2000   3.25647e-26
      50.3000   2.63294e-26
      50.4000   2.27756e-26
      50.5000   2.05246e-26
      50.6000   1.83252e-26
      50.7000   1.41633e-26
      50.8000   1.18025e-26
      50.9000   6.46256e-27
      51.0000   4.32974e-27
      51.1000   3.50047e-27
      51.2000   3.50726e-27
      51.3000   3.14112e-27
      51.4000   1.93702e-27
      51.5000   1.16803e-27
      51.6000   8.23731e-28
      51.7000   5.55465e-28
      51.8000   4.20106e-28
      51.9000   3.49573e-28
      52.0000   2.76966e-28
      52.1000   1.91435e-28
      52.2000   1.46450e-28
      52.3000   9.64596e-29
      52.4000   6.29421e-29
      52.5000   4.97365e-29
      52.6000   4.42126e-29
      52.7000   3.77175e-29
      52.8000   2.56367e-29
      52.9000   1.46632e-29
      53.0000   9.80519e-30
      53.1000   6.46511e-30
      53.2000   4.33777e-30
      53.3000   2.87877e-30
      53.4000   1.88626e-30
      53.5000   1.07664e-30
      53.6000   5.44151e-31
      53.7000   3.17874e-31
      53.8000   2.37399e-31
      53.9000   1.63030e-31
      54.0000   1.09612e-31
      54.1000   7.13206e-32
      54.2000   5.05374e-32
      54.3000   3.04391e-32
      54.4000   1.28911e-32
      54.5000   7.03864e-33
      54.6000   5.04169e-33
      54.7000   3.82565e-33
      54.8000   2.68770e-33
      54.9000   1.82219e-33
      55.0000   1.32601e-33
      55.1000   9.58898e-34
      55.2000   6.88222e-34
      55.3000   6.35982e-34
      55.4000   5.66938e-34
      55.5000   4.07295e-34
      55.6000   2.61116e-34
      55.7000   1.87893e-34
      55.8000   1.28296e-34
      55.9000   8.99445e-35
      56.0000   6.57971e-35
      56.1000   4.54691e-35
      56.2000   4.21288e-35
      56.3000   3.43547e-35
      56.4000   2.48809e-35
      56.5000   1.71478e-35
      56.6000   1.18143e-35
      56.7000   8.60758e-36
      56.8000   6.31468e-36
      56.9000   4.47425e-36
      57.0000   2.98754e-36
      57.1000   1.99506e-36
      57.2000   1.37396e-36
      57.3000   9.72508e-37
      57.4000   6.94499e-37
      57.5000   4.92726e-37
      57.6000   3.20389e-37
      57.7000   2.22676e-37
      57.8000   2.01792e-37
      57.9000   1.51087e-37
      58.0000   1.07639e-37
      58.1000   7.09898e-38
      58.2000   4.08613e-38
      58.3000   2.68776e-38
      58.4000   2.03324e-38
      58.5000   1.62111e-38
      58.6000   1.10641e-38
      58.7000   7.47191e-39
      58.8000   5.01538e-39
      58.9000   3.37838e-39
      59.0000   2.45459e-39
      59.1000   1.82133e-39
      59.2000   1.34714e-39
      59.3000   9.92984e-40
      59.4000   7.29243e-40
      59.5000   5.13603e-40
      59.6000   3.39720e-40
      59.7000   2.60134e-40
      59.8000   1.80800e-40
      59.9000   1.07456e-40
      60.0000   7.91299e-41
      60.1000   5.83725e-41
      60.2000   4.29218e-41
      60.3000   3.14507e-41
      60.4000   2.29813e-41
      60.5000   1.69361e-41
      60.6000   1.25851e-41
      60.7000   9.90718e-42
      60.8000   8.17938e-42
      60.9000   6.73884e-42
      61.0000   5.56596e-42
      61.1000   4.61307e-42
      61.2000   3.83676e-42
      61.3000   3.17955e-42
      61.4000   2.62884e-42
      61.5000   2.18883e-42
      61.6000   1.74181e-42
      61.7000   1.36767e-42
      61.8000   1.07620e-42
      61.9000   8.53391e-43
      62.0000   6.51604e-43
      62.1000   4.69435e-43
      62.2000   3.32108e-43
      62.3000   2.42425e-43
      62.4000   1.97583e-43
      62.5000   1.72360e-43
      62.6000   1.47136e-43
      62.7000   1.27518e-43
      62.8000   1.12104e-43
      62.9000   7.98740e-44
      63.0000   5.74532e-44
      63.1000   3.78351e-44
      63.2000   3.22299e-44
      63.3000   2.52234e-44
      63.4000   2.24208e-44
      63.5000   1.54143e-44
      63.6000   1.26117e-44
      63.7000   9.80909e-45
      63.8000   9.80909e-45
      63.9000   7.00649e-45
      64.0000   2.80260e-45
      64.1000   2.80260e-45
      64.2000   2.80260e-45
      64.3000   2.80260e-45
      64.4000       0.00000
      64.5000       0.00000
      64.6000       0.00000
      64.7000       0.00000
      64.8000       0.00000
      64.9000       0.00000
      65.0000       0.00000
      65.1000       0.00000
      65.2000       0.00000
      65.3000       0.00000
      65.4000       0.00000
      65.5000       0.00000
      65.6000       0.00000
      65.7000       0.00000
      65.8000       0.00000
      65.9000       0.00000
      66.0000       0.00000
      66.1000       0.00000
      66.2000       0.00000
      66.3000       0.00000
      66.4000       0.00000
      66.5000       0.00000
      66.6000       0.00000
      66.7000       0.00000
      66.8000       0.00000
      66.9000       0.00000
      67.0000       0.00000
      67.1000       0.00000
      67.2000       0.00000
      67.3000       0.00000
      67.4000       0.00000
      67.5000       0.00000
      67.6000       0.00000
      67.7000       0.00000
      67.8000       0.00000
      67.9000       0.00000
      68.0000       0.00000
      68.1000       0.00000
      68.2000       0.00000
      68.3000       0.00000
      68.4000       0.00000
      68.5000       0.00000
      68.6000       0.00000
      68.7000       0.00000
      68.8000       0.00000
      68.9000       0.00000
      69.0000       0.00000
      69.1000       0.00000
      69.2000       0.00000
      69.3000       0.00000
      69.4000       0.00000
      69.5000       0.00000
      69.6000       0.00000
      69.7000       0.00000
      69.8000       0.00000
      69.9000       0.00000
      70.0000       0.00000
      70.1000       0.00000
      70.2000       0.00000
      70.3000       0.00000
      70.4000       0.00000
      70.5000       0.00000
      70.6000       0.00000
      70.7000       0.00000
      70.8000       0.00000
      70.9000       0.00000
      71.0000       0.00000
      71.1000       0.00000
      71.2000       0.00000
      71.3000       0.00000
      71.4000       0.00000
      71.5000       0.00000
      71.6000       0.00000
      71.7000       0.00000
      71.8000       0.00000
      71.9000       0.00000
      72.0000       0.00000
