Filter Be-thin
observation_date 22-Sept-2023 22:45:45
wavelength effective area 
      1.00000   2.78436e-10
      1.10000   7.94894e-10
      1.20000   2.06653e-09
      1.30000   4.94173e-09
      1.40000   1.12137e-08
      1.50000   2.39244e-08
      1.60000   4.84350e-08
      1.70000   9.40348e-08
      1.80000   1.75076e-07
      1.90000   3.14679e-07
      2.00000   5.47088e-07
      2.10000   9.24093e-07
      2.20000   1.52378e-06
      2.30000   2.44952e-06
      2.40000   3.84566e-06
      2.50000   5.87717e-06
      2.60000   8.96898e-06
      2.70000   1.33715e-05
      2.80000   1.95535e-05
      2.90000   2.82992e-05
      3.00000   4.03167e-05
      3.10000   5.66989e-05
      3.20000   7.88659e-05
      3.30000   0.000108581
      3.40000   0.000147932
      3.50000   0.000199587
      3.60000   0.000268032
      3.70000   0.000356115
      3.80000   0.000471170
      3.90000   0.000619914
      4.00000   0.000810510
      4.10000    0.00105476
      4.20000    0.00136771
      4.30000    0.00176842
      4.40000    0.00228033
      4.50000    0.00293221
      4.60000    0.00375764
      4.70000    0.00481500
      4.80000    0.00616323
      4.90000    0.00778718
      5.00000     0.0100973
      5.10000     0.0129077
      5.20000     0.0165477
      5.30000     0.0210338
      5.40000     0.0266908
      5.50000     0.0339261
      5.60000     0.0417969
      5.70000     0.0542457
      5.80000     0.0634869
      5.90000     0.0967620
      6.00000      0.129828
      6.10000      0.165603
      6.20000      0.202947
      6.30000      0.238391
      6.40000      0.268581
      6.50000      0.290529
      6.60000      0.300022
      6.70000      0.308600
      6.80000      0.308222
      6.90000      0.403281
      7.00000      0.437330
      7.10000      0.461153
      7.20000      0.479616
      7.30000      0.494222
      7.40000      0.504836
      7.50000      0.512805
      7.60000      0.518251
      7.70000      0.519828
      7.80000      0.516579
      7.90000      0.513877
      8.00000      0.739779
      8.10000      0.806086
      8.20000      0.815258
      8.30000      0.820639
      8.40000      0.822581
      8.50000      0.823037
      8.60000      0.821770
      8.70000      0.819359
      8.80000      0.815551
      8.90000      0.810781
      9.00000      0.805003
      9.10000      0.798282
      9.20000      0.790799
      9.30000      0.782493
      9.40000      0.773500
      9.50000      0.763884
      9.60000      0.753619
      9.70000      0.742811
      9.80000      0.731561
      9.90000      0.719908
      10.0000      0.707908
      10.1000      0.695589
      10.2000      0.682981
      10.3000      0.670078
      10.4000      0.656918
      10.5000      0.643533
      10.6000      0.629957
      10.7000      0.616218
      10.8000      0.602343
      10.9000      0.588371
      11.0000      0.574314
      11.1000      0.560211
      11.2000      0.546074
      11.3000      0.531935
      11.4000      0.517796
      11.5000      0.503670
      11.6000      0.489578
      11.7000      0.475502
      11.8000      0.461492
      11.9000      0.447472
      12.0000      0.433011
      12.1000      0.420222
      12.2000      0.414870
      12.3000      0.405167
      12.4000      0.392584
      12.5000      0.379919
      12.6000      0.367343
      12.7000      0.354925
      12.8000      0.342691
      12.9000      0.330648
      13.0000      0.318822
      13.1000      0.307226
      13.2000      0.295888
      13.3000      0.284867
      13.4000      0.274147
      13.5000      0.263716
      13.6000      0.253585
      13.7000      0.243712
      13.8000      0.234094
      13.9000      0.224736
      14.0000      0.215635
      14.1000      0.206771
      14.2000      0.198135
      14.3000      0.189730
      14.4000      0.181560
      14.5000      0.173640
      14.6000      0.165977
      14.7000      0.158543
      14.8000      0.151339
      14.9000      0.144360
      15.0000      0.137606
      15.1000      0.131076
      15.2000      0.124810
      15.3000      0.118770
      15.4000      0.112941
      15.5000      0.107321
      15.6000      0.101911
      15.7000     0.0967248
      15.8000     0.0917695
      15.9000     0.0870060
      16.0000     0.0824280
      16.1000     0.0780316
      16.2000     0.0738561
      16.3000     0.0698635
      16.4000     0.0660316
      16.5000     0.0623551
      16.6000     0.0588557
      16.7000     0.0555340
      16.8000     0.0523504
      16.9000     0.0493006
      17.0000     0.0464093
      17.1000     0.0436862
      17.2000     0.0410922
      17.3000     0.0386216
      17.4000     0.0363076
      17.5000     0.0341124
      17.6000     0.0320306
      17.7000     0.0300900
      17.8000     0.0283314
      17.9000     0.0266541
      18.0000     0.0250459
      18.1000     0.0235462
      18.2000     0.0220965
      18.3000     0.0206899
      18.4000     0.0193384
      18.5000     0.0180444
      18.6000     0.0167924
      18.7000     0.0155944
      18.8000     0.0144740
      18.9000     0.0134076
      19.0000     0.0124190
      19.1000     0.0114975
      19.2000     0.0106215
      19.3000    0.00981688
      19.4000    0.00907271
      19.5000    0.00837195
      19.6000    0.00775378
      19.7000    0.00716997
      19.8000    0.00661684
      19.9000    0.00611778
      20.0000    0.00564193
      20.1000    0.00519952
      20.2000    0.00479342
      20.3000    0.00440623
      20.4000    0.00405561
      20.5000    0.00372633
      20.6000    0.00341618
      20.7000    0.00313762
      20.8000    0.00287159
      20.9000    0.00262995
      21.0000    0.00240548
      21.1000    0.00219422
      21.2000    0.00200567
      21.3000    0.00182534
      21.4000    0.00166388
      21.5000    0.00151289
      21.6000    0.00137242
      21.7000    0.00124634
      21.8000    0.00112559
      21.9000    0.00101937
      22.0000   0.000917886
      22.1000   0.000826673
      22.2000   0.000741627
      22.3000   0.000661993
      22.4000   0.000582322
      22.5000   0.000503014
      22.6000   0.000403456
      22.7000   0.000329296
      22.8000   0.000370741
      22.9000   0.000429169
      23.0000   0.000507555
      23.1000   0.000539234
      23.2000   0.000528486
      23.3000   0.000496163
      23.4000   0.000453264
      23.5000   0.000414627
      23.6000   0.000377186
      23.7000   0.000343841
      23.8000   0.000311156
      23.9000   0.000283146
      24.0000   0.000255807
      24.1000   0.000232087
      24.2000   0.000209249
      24.3000   0.000189418
      24.4000   0.000170527
      24.5000   0.000154004
      24.6000   0.000138418
      24.7000   0.000124762
      24.8000   0.000111966
      24.9000   0.000100727
      25.0000   9.02440e-05
      25.1000   8.10522e-05
      25.2000   7.24894e-05
      25.3000   6.50049e-05
      25.4000   5.80231e-05
      25.5000   5.19662e-05
      25.6000   4.62884e-05
      25.7000   4.14113e-05
      25.8000   3.68004e-05
      25.9000   3.28942e-05
      26.0000   2.91557e-05
      26.1000   2.60420e-05
      26.2000   2.30146e-05
      26.3000   2.05476e-05
      26.4000   1.81013e-05
      26.5000   1.61565e-05
      26.6000   1.42240e-05
      26.7000   1.26584e-05
      26.8000   1.11450e-05
      26.9000   9.88176e-06
      27.0000   8.70166e-06
      27.1000   7.68196e-06
      27.2000   6.76580e-06
      27.3000   5.95549e-06
      27.4000   5.27520e-06
      27.5000   4.63405e-06
      27.6000   4.09626e-06
      27.7000   3.56871e-06
      27.8000   3.15694e-06
      27.9000   2.74783e-06
      28.0000   2.42099e-06
      28.1000   2.11174e-06
      28.2000   1.84849e-06
      28.3000   1.61628e-06
      28.4000   1.40492e-06
      28.5000   1.23172e-06
      28.6000   1.06267e-06
      28.7000   9.34479e-07
      28.8000   8.07142e-07
      28.9000   7.05613e-07
      29.0000   6.11860e-07
      29.1000   5.29993e-07
      29.2000   4.61444e-07
      29.3000   3.95851e-07
      29.4000   3.46102e-07
      29.5000   2.96692e-07
      29.6000   2.58085e-07
      29.7000   2.22493e-07
      29.8000   1.91271e-07
      29.9000   1.65823e-07
      30.0000   1.40832e-07
      30.1000   1.22776e-07
      30.2000   1.04845e-07
      30.3000   9.14547e-08
      30.4000   8.06824e-08
      30.5000   7.02511e-08
      30.6000   6.08782e-08
      30.7000   5.15710e-08
      30.8000   4.44440e-08
      30.9000   3.80016e-08
      31.0000   3.22240e-08
      31.1000   2.78864e-08
      31.2000   2.35797e-08
      31.3000   2.03630e-08
      31.4000   1.73954e-08
      31.5000   1.47386e-08
      31.6000   1.27105e-08
      31.7000   1.06971e-08
      31.8000   9.19850e-09
      31.9000   7.83636e-09
      32.0000   6.60097e-09
      32.1000   5.71271e-09
      32.2000   4.83087e-09
      32.3000   4.14553e-09
      32.4000   3.54895e-09
      32.5000   2.97749e-09
      32.6000   2.57769e-09
      32.7000   2.18076e-09
      32.8000   1.85126e-09
      32.9000   1.58703e-09
      33.0000   1.32472e-09
      33.1000   1.14034e-09
      33.2000   9.67527e-10
      33.3000   8.09402e-10
      33.4000   6.96256e-10
      33.5000   5.83913e-10
      33.6000   4.93966e-10
      33.7000   4.21081e-10
      33.8000   3.48701e-10
      33.9000   2.98776e-10
      34.0000   2.52232e-10
      34.1000   2.08783e-10
      34.2000   1.79137e-10
      34.3000   1.49688e-10
      34.4000   1.25024e-10
      34.5000   1.06440e-10
      34.6000   8.79816e-11
      34.7000   7.42115e-11
      34.8000   6.26557e-11
      34.9000   5.11776e-11
      35.0000   4.36336e-11
      35.1000   3.65392e-11
      35.2000   2.97803e-11
      35.3000   2.54396e-11
      35.4000   2.11282e-11
      35.5000   1.73201e-11
      35.6000   1.47096e-11
      35.7000   1.21168e-11
      35.8000   9.98974e-12
      35.9000   8.43628e-12
      36.0000   6.89343e-12
      36.1000   5.71417e-12
      36.2000   4.79990e-12
      36.3000   3.89190e-12
      36.4000   3.24196e-12
      36.5000   2.70981e-12
      36.6000   2.18135e-12
      36.7000   1.82451e-12
      36.8000   1.51827e-12
      36.9000   1.21416e-12
      37.0000   1.01855e-12
      37.1000   8.44328e-13
      37.2000   6.71311e-13
      37.3000   5.64023e-13
      37.4000   4.66076e-13
      37.5000   3.68817e-13
      37.6000   3.09818e-13
      37.7000   2.55422e-13
      37.8000   2.01410e-13
      37.9000   1.68812e-13
      38.0000   1.38967e-13
      38.1000   1.09331e-13
      38.2000   9.12192e-14
      38.3000   7.50429e-14
      38.4000   5.89809e-14
      38.5000   4.88649e-14
      38.6000   4.02129e-14
      38.7000   3.16225e-14
      38.8000   2.59481e-14
      38.9000   2.13817e-14
      39.0000   1.68476e-14
      39.1000   1.36560e-14
      39.2000   1.12772e-14
      39.3000   8.91523e-15
      39.4000   7.11233e-15
      39.5000   5.87580e-15
      39.6000   4.64822e-15
      39.7000   3.63076e-15
      39.8000   3.01057e-15
      39.9000   2.39485e-15
      40.0000   1.83200e-15
      40.1000   1.52606e-15
      40.2000   1.22233e-15
      40.3000   9.20842e-16
      40.4000   7.65327e-16
      40.5000   6.17698e-16
      40.6000   4.71139e-16
      40.7000   3.79411e-16
      40.8000   3.08719e-16
      40.9000   2.38548e-16
      41.0000   1.85751e-16
      41.1000   1.52446e-16
      41.2000   1.19388e-16
      41.3000   8.97616e-17
      41.4000   7.43263e-17
      41.5000   5.90031e-17
      41.6000   4.37938e-17
      41.7000   3.57513e-17
      41.8000   2.87614e-17
      41.9000   2.18230e-17
      42.0000   1.69486e-17
      42.1000   1.38125e-17
      42.2000   1.06995e-17
      42.3000   7.91119e-18
      42.4000   6.52815e-18
      42.5000   5.15525e-18
      42.6000   3.79262e-18
      42.7000   3.03405e-18
      42.8000   2.43917e-18
      42.9000   1.84865e-18
      43.0000   1.38568e-18
      43.1000   1.13238e-18
      43.2000   8.80978e-19
      43.3000   6.31453e-19
      43.4000   6.31777e-19
      43.5000   7.40030e-19
      43.6000   8.83850e-19
      43.7000   9.49904e-19
      43.8000   8.39634e-19
      43.9000   6.51797e-19
      44.0000   4.64456e-19
      44.1000   3.82245e-19
      44.2000   3.04762e-19
      44.3000   2.27492e-19
      44.4000   1.70096e-19
      44.5000   1.38743e-19
      44.6000   1.07474e-19
      44.7000   7.62895e-20
      44.8000   6.15276e-20
      44.9000   4.91182e-20
      45.0000   3.67416e-20
      45.1000   2.65862e-20
      45.2000   2.17590e-20
      45.3000   1.69451e-20
      45.4000   1.21435e-20
      45.5000   9.35695e-21
      45.6000   7.52217e-21
      45.7000   5.69235e-21
      45.8000   3.90988e-21
      45.9000   3.22494e-21
      46.0000   2.54179e-21
      46.1000   1.86046e-21
      46.2000   1.33839e-21
      46.3000   1.08935e-21
      46.4000   8.40990e-22
      46.5000   5.93275e-22
      46.6000   4.51200e-22
      46.7000   3.62005e-22
      46.8000   2.73050e-22
      46.9000   1.84326e-22
      47.0000   1.49316e-22
      47.1000   1.18032e-22
      47.2000   8.68312e-23
      47.3000   5.92915e-23
      47.4000   4.85174e-23
      47.5000   3.77712e-23
      47.6000   2.70535e-23
      47.7000   1.90905e-23
      47.8000   1.54727e-23
      47.9000   1.18639e-23
      48.0000   8.26509e-24
      48.1000   6.03253e-24
      48.2000   4.84508e-24
      48.3000   3.66069e-24
      48.4000   2.47943e-24
      48.5000   1.87057e-24
      48.6000   1.48990e-24
      48.7000   1.11022e-24
      48.8000   7.31495e-25
      48.9000   5.69007e-25
      49.0000   4.49956e-25
      49.1000   3.31217e-25
      49.2000   2.12782e-25
      49.3000   1.72748e-25
      49.4000   1.39576e-25
      49.5000   1.06490e-25
      49.6000   7.34888e-26
      49.7000   6.61773e-26
      49.8000   5.95170e-26
      49.9000   5.28741e-26
      50.0000   4.62487e-26
      50.1000   4.05631e-26
      50.2000   3.27407e-26
      50.3000   2.64725e-26
      50.4000   2.29000e-26
      50.5000   2.06373e-26
      50.6000   1.84264e-26
      50.7000   1.42418e-26
      50.8000   1.18684e-26
      50.9000   6.49877e-27
      51.0000   4.35412e-27
      51.1000   3.52028e-27
      51.2000   3.52721e-27
      51.3000   3.15908e-27
      51.4000   1.94815e-27
      51.5000   1.17478e-27
      51.6000   8.28512e-28
      51.7000   5.58704e-28
      51.8000   4.22569e-28
      51.9000   3.51633e-28
      52.0000   2.78607e-28
      52.1000   1.92575e-28
      52.2000   1.47326e-28
      52.3000   9.70398e-29
      52.4000   6.33226e-29
      52.5000   5.00387e-29
      52.6000   4.44827e-29
      52.7000   3.79492e-29
      52.8000   2.57950e-29
      52.9000   1.47542e-29
      53.0000   9.86635e-30
      53.1000   6.50563e-30
      53.2000   4.36510e-30
      53.3000   2.89700e-30
      53.4000   1.89826e-30
      53.5000   1.08352e-30
      53.6000   5.47647e-31
      53.7000   3.19926e-31
      53.8000   2.38940e-31
      53.9000   1.64093e-31
      54.0000   1.10331e-31
      54.1000   7.17907e-32
      54.2000   5.08723e-32
      54.3000   3.06419e-32
      54.4000   1.29774e-32
      54.5000   7.08602e-33
      54.6000   5.07580e-33
      54.7000   3.85165e-33
      54.8000   2.70606e-33
      54.9000   1.83469e-33
      55.0000   1.33515e-33
      55.1000   9.65538e-34
      55.2000   6.93010e-34
      55.3000   6.40427e-34
      55.4000   5.70919e-34
      55.5000   4.10169e-34
      55.6000   2.62967e-34
      55.7000   1.89232e-34
      55.8000   1.29215e-34
      55.9000   9.05924e-35
      56.0000   6.62736e-35
      56.1000   4.58001e-35
      56.2000   4.24372e-35
      56.3000   3.46074e-35
      56.4000   2.50649e-35
      56.5000   1.72752e-35
      56.6000   1.19025e-35
      56.7000   8.67212e-36
      56.8000   6.36223e-36
      56.9000   4.50810e-36
      57.0000   3.01024e-36
      57.1000   2.01029e-36
      57.2000   1.38450e-36
      57.3000   9.80001e-37
      57.4000   6.99877e-37
      57.5000   4.96561e-37
      57.6000   3.22896e-37
      57.7000   2.24427e-37
      57.8000   2.03387e-37
      57.9000   1.52288e-37
      58.0000   1.08499e-37
      58.1000   7.15600e-38
      58.2000   4.11911e-38
      58.3000   2.70956e-38
      58.4000   2.04981e-38
      58.5000   1.63438e-38
      58.6000   1.11551e-38
      58.7000   7.53364e-39
      58.8000   5.05700e-39
      58.9000   3.40654e-39
      59.0000   2.47514e-39
      59.1000   1.83664e-39
      59.2000   1.35852e-39
      59.3000   1.00141e-39
      59.4000   7.35464e-40
      59.5000   5.18005e-40
      59.6000   3.42647e-40
      59.7000   2.62386e-40
      59.8000   1.82375e-40
      59.9000   1.08396e-40
      60.0000   7.98264e-41
      60.1000   5.88896e-41
      60.2000   4.33015e-41
      60.3000   3.17324e-41
      60.4000   2.31859e-41
      60.5000   1.70860e-41
      60.6000   1.27000e-41
      60.7000   9.99686e-42
      60.8000   8.25645e-42
      60.9000   6.79910e-42
      61.0000   5.61640e-42
      61.1000   4.65511e-42
      61.2000   3.87179e-42
      61.3000   3.20757e-42
      61.4000   2.65546e-42
      61.5000   2.21125e-42
      61.6000   1.75723e-42
      61.7000   1.38028e-42
      61.8000   1.08601e-42
      61.9000   8.58996e-43
      62.0000   6.58610e-43
      62.1000   4.76441e-43
      62.2000   3.34910e-43
      62.3000   2.42425e-43
      62.4000   2.01787e-43
      62.5000   1.72360e-43
      62.6000   1.49939e-43
      62.7000   1.27518e-43
      62.8000   1.12104e-43
      62.9000   8.26766e-44
      63.0000   5.74532e-44
      63.1000   3.78351e-44
      63.2000   3.22299e-44
      63.3000   2.52234e-44
      63.4000   2.24208e-44
      63.5000   1.54143e-44
      63.6000   1.26117e-44
      63.7000   9.80909e-45
      63.8000   9.80909e-45
      63.9000   7.00649e-45
      64.0000   2.80260e-45
      64.1000   2.80260e-45
      64.2000   2.80260e-45
      64.3000   2.80260e-45
      64.4000       0.00000
      64.5000       0.00000
      64.6000       0.00000
      64.7000       0.00000
      64.8000       0.00000
      64.9000       0.00000
      65.0000       0.00000
      65.1000       0.00000
      65.2000       0.00000
      65.3000       0.00000
      65.4000       0.00000
      65.5000       0.00000
      65.6000       0.00000
      65.7000       0.00000
      65.8000       0.00000
      65.9000       0.00000
      66.0000       0.00000
      66.1000       0.00000
      66.2000       0.00000
      66.3000       0.00000
      66.4000       0.00000
      66.5000       0.00000
      66.6000       0.00000
      66.7000       0.00000
      66.8000       0.00000
      66.9000       0.00000
      67.0000       0.00000
      67.1000       0.00000
      67.2000       0.00000
      67.3000       0.00000
      67.4000       0.00000
      67.5000       0.00000
      67.6000       0.00000
      67.7000       0.00000
      67.8000       0.00000
      67.9000       0.00000
      68.0000       0.00000
      68.1000       0.00000
      68.2000       0.00000
      68.3000       0.00000
      68.4000       0.00000
      68.5000       0.00000
      68.6000       0.00000
      68.7000       0.00000
      68.8000       0.00000
      68.9000       0.00000
      69.0000       0.00000
      69.1000       0.00000
      69.2000       0.00000
      69.3000       0.00000
      69.4000       0.00000
      69.5000       0.00000
      69.6000       0.00000
      69.7000       0.00000
      69.8000       0.00000
      69.9000       0.00000
      70.0000       0.00000
      70.1000       0.00000
      70.2000       0.00000
      70.3000       0.00000
      70.4000       0.00000
      70.5000       0.00000
      70.6000       0.00000
      70.7000       0.00000
      70.8000       0.00000
      70.9000       0.00000
      71.0000       0.00000
      71.1000       0.00000
      71.2000       0.00000
      71.3000       0.00000
      71.4000       0.00000
      71.5000       0.00000
      71.6000       0.00000
      71.7000       0.00000
      71.8000       0.00000
      71.9000       0.00000
      72.0000       0.00000
