Filter: Al-poly/Ti-poly
observation_date 22-Sept-2015 22:40:45
wavelength effective area 
      1.00000   2.76604e-10
      1.10000   7.87990e-10
      1.20000   2.04351e-09
      1.30000   4.87275e-09
      1.40000   1.10214e-08
      1.50000   2.34288e-08
      1.60000   4.72405e-08
      1.70000   9.13083e-08
      1.80000   1.69177e-07
      1.90000   3.02483e-07
      2.00000   5.22924e-07
      2.10000   8.77959e-07
      2.20000   1.43842e-06
      2.30000   2.29665e-06
      2.40000   3.57999e-06
      2.50000   5.73207e-06
      2.60000   8.86429e-06
      2.70000   1.31996e-05
      2.80000   1.92780e-05
      2.90000   2.78637e-05
      3.00000   3.96418e-05
      3.10000   5.56691e-05
      3.20000   7.73165e-05
      3.30000   0.000106281
      3.40000   0.000144561
      3.50000   0.000194711
      3.60000   0.000261027
      3.70000   0.000346186
      3.80000   0.000457183
      3.90000   0.000600364
      4.00000   0.000783414
      4.10000    0.00101745
      4.20000    0.00131655
      4.30000    0.00169858
      4.40000    0.00218542
      4.50000    0.00280380
      4.60000    0.00358480
      4.70000    0.00458270
      4.80000    0.00585175
      4.90000    0.00737568
      5.00000    0.00953989
      5.10000     0.0121646
      5.20000     0.0155551
      5.30000     0.0197213
      5.40000     0.0249598
      5.50000     0.0316422
      5.60000     0.0388800
      5.70000     0.0503260
      5.80000     0.0587389
      5.90000     0.0892831
      6.00000      0.119469
      6.10000      0.151977
      6.20000      0.185753
      6.30000      0.217592
      6.40000      0.244461
      6.50000      0.263691
      6.60000      0.271532
      6.70000      0.278481
      6.80000      0.277341
      6.90000      0.361824
      7.00000      0.391233
      7.10000      0.411361
      7.20000      0.426631
      7.30000      0.438462
      7.40000      0.446703
      7.50000      0.452567
      7.60000      0.456180
      7.70000      0.456381
      7.80000      0.452357
      7.90000      0.448834
      8.00000      0.751570
      8.10000      0.820495
      8.20000      0.831466
      8.30000      0.838542
      8.40000      0.842338
      8.50000      0.844736
      8.60000      0.845481
      8.70000      0.845138
      8.80000      0.843436
      8.90000      0.840810
      9.00000      0.837210
      9.10000      0.832688
      9.20000      0.827418
      9.30000      0.821335
      9.40000      0.814577
      9.50000      0.807203
      9.60000      0.799176
      9.70000      0.790600
      9.80000      0.781617
      9.90000      0.772260
      10.0000      0.762587
      10.1000      0.752609
      10.2000      0.742354
      10.3000      0.731775
      10.4000      0.720902
      10.5000      0.709759
      10.6000      0.698386
      10.7000      0.686805
      10.8000      0.675033
      10.9000      0.663101
      11.0000      0.651024
      11.1000      0.638833
      11.2000      0.626535
      11.3000      0.614164
      11.4000      0.601718
      11.5000      0.589203
      11.6000      0.576638
      11.7000      0.563985
      11.8000      0.551313
      11.9000      0.538579
      12.0000      0.525225
      12.1000      0.513860
      12.2000      0.511525
      12.3000      0.503769
      12.4000      0.492328
      12.5000      0.480647
      12.6000      0.468929
      12.7000      0.457255
      12.8000      0.445656
      12.9000      0.434145
      13.0000      0.422755
      13.1000      0.411513
      13.2000      0.400431
      13.3000      0.389521
      13.4000      0.378795
      13.5000      0.368365
      13.6000      0.358210
      13.7000      0.348227
      13.8000      0.338411
      13.9000      0.328777
      14.0000      0.319323
      14.1000      0.310036
      14.2000      0.300918
      14.3000      0.291964
      14.4000      0.283165
      14.5000      0.274534
      14.6000      0.266071
      14.7000      0.257766
      14.8000      0.249621
      14.9000      0.241636
      15.0000      0.233813
      15.1000      0.226157
      15.2000      0.218694
      15.3000      0.211402
      15.4000      0.204276
      15.5000      0.197315
      15.6000      0.190529
      15.7000      0.183920
      15.8000      0.177515
      15.9000      0.171287
      16.0000      0.165230
      16.1000      0.159345
      16.2000      0.153665
      16.3000      0.148146
      16.4000      0.142774
      16.5000      0.137544
      16.6000      0.132469
      16.7000      0.127551
      16.8000      0.122762
      16.9000      0.118101
      17.0000      0.113586
      17.1000      0.109216
      17.2000      0.104963
      17.3000      0.100829
      17.4000     0.0969098
      17.5000     0.0931765
      17.6000     0.0895959
      17.7000     0.0861933
      17.8000     0.0830292
      17.9000     0.0799562
      18.0000     0.0769516
      18.1000     0.0740512
      18.2000     0.0712029
      18.3000     0.0683964
      18.4000     0.0656366
      18.5000     0.0629266
      18.6000     0.0602518
      18.7000     0.0576125
      18.8000     0.0550699
      18.9000     0.0526013
      19.0000     0.0502327
      19.1000     0.0479630
      19.2000     0.0457669
      19.3000     0.0436813
      19.4000     0.0416837
      19.5000     0.0397537
      19.6000     0.0379415
      19.7000     0.0361948
      19.8000     0.0345075
      19.9000     0.0329227
      20.0000     0.0313847
      20.1000     0.0299080
      20.2000     0.0284978
      20.3000     0.0271278
      20.4000     0.0258276
      20.5000     0.0245722
      20.6000     0.0233577
      20.7000     0.0222088
      20.8000     0.0210913
      20.9000     0.0200266
      21.0000     0.0190428
      21.1000     0.0181219
      21.2000     0.0173635
      21.3000     0.0166548
      21.4000     0.0160475
      21.5000     0.0155448
      21.6000     0.0151466
      21.7000     0.0147444
      21.8000     0.0143426
      21.9000     0.0139195
      22.0000     0.0134838
      22.1000     0.0130125
      22.2000     0.0124735
      22.3000     0.0118774
      22.4000     0.0110605
      22.5000     0.0101815
      22.6000    0.00848408
      22.7000    0.00770587
      22.8000     0.0114450
      22.9000     0.0156445
      23.0000     0.0194928
      23.1000     0.0217282
      23.2000     0.0223916
      23.3000     0.0221155
      23.4000     0.0213512
      23.5000     0.0205887
      23.6000     0.0198320
      23.7000     0.0190581
      23.8000     0.0182904
      23.9000     0.0175559
      24.0000     0.0168309
      24.1000     0.0161303
      24.2000     0.0154431
      24.3000     0.0147880
      24.4000     0.0141471
      24.5000     0.0135338
      24.6000     0.0129367
      24.7000     0.0123676
      24.8000     0.0118145
      24.9000     0.0112867
      25.0000     0.0107751
      25.1000     0.0102877
      25.2000    0.00981539
      25.3000    0.00936575
      25.4000    0.00893010
      25.5000    0.00851704
      25.6000    0.00811671
      25.7000    0.00773883
      25.8000    0.00737111
      25.9000    0.00702500
      26.0000    0.00668678
      26.1000    0.00636996
      26.2000    0.00605883
      26.3000    0.00576968
      26.4000    0.00548385
      26.5000    0.00522004
      26.6000    0.00495909
      26.7000    0.00471729
      26.8000    0.00448027
      26.9000    0.00425824
      27.0000    0.00404251
      27.1000    0.00383786
      27.2000    0.00364101
      27.3000     0.0153371
      27.4000     0.0417094
      27.5000     0.0606024
      27.6000     0.0589130
      27.7000     0.0572413
      27.8000     0.0555937
      27.9000     0.0539630
      28.0000     0.0523915
      28.1000     0.0508446
      28.2000     0.0493459
      28.3000     0.0478844
      28.4000     0.0464554
      28.5000     0.0450741
      28.6000     0.0437120
      28.7000     0.0424209
      28.8000     0.0411438
      28.9000     0.0399137
      29.0000     0.0387064
      29.1000     0.0375313
      29.2000     0.0363905
      29.3000     0.0352679
      29.4000     0.0341919
      29.5000     0.0331279
      29.6000     0.0321059
      29.7000     0.0311033
      29.8000     0.0301277
      29.9000     0.0291843
      30.0000     0.0282530
      30.1000     0.0273658
      30.2000     0.0264888
      30.3000     0.0272813
      30.4000     0.0290068
      30.5000     0.0301525
      30.6000     0.0292315
      30.7000     0.0283212
      30.8000     0.0274473
      30.9000     0.0265914
      31.0000     0.0257557
      31.1000     0.0249527
      31.2000     0.0241592
      31.3000     0.0234004
      31.4000     0.0226562
      31.5000     0.0219310
      31.6000     0.0212358
      31.7000     0.0205490
      31.8000     0.0198919
      31.9000     0.0192483
      32.0000     0.0186166
      32.1000     0.0180046
      32.2000     0.0174002
      32.3000     0.0168216
      32.4000     0.0162583
      32.5000     0.0157057
      32.6000     0.0151892
      32.7000     0.0146804
      32.8000     0.0141897
      32.9000     0.0137158
      33.0000     0.0132478
      33.1000     0.0128177
      33.2000     0.0123985
      33.3000     0.0119895
      33.4000     0.0115988
      33.5000     0.0112131
      33.6000     0.0108424
      33.7000     0.0104840
      33.8000     0.0101299
      33.9000    0.00979495
      34.0000    0.00946614
      34.1000    0.00914518
      34.2000    0.00883983
      34.3000    0.00853812
      34.4000    0.00824665
      34.5000    0.00796715
      34.6000    0.00769104
      34.7000    0.00742536
      34.8000    0.00716619
      34.9000    0.00691019
      35.0000    0.00666976
      35.1000    0.00643356
      35.2000    0.00620202
      35.3000    0.00598780
      35.4000    0.00577622
      35.5000    0.00557058
      35.6000    0.00537562
      35.7000    0.00518309
      35.8000    0.00499772
      35.9000    0.00482058
      36.0000    0.00464565
      36.1000    0.00447867
      36.2000    0.00431795
      36.3000    0.00415926
      36.4000    0.00400891
      36.5000    0.00386330
      36.6000    0.00371956
      36.7000    0.00358427
      36.8000    0.00345259
      36.9000    0.00332263
      37.0000    0.00320094
      37.1000    0.00308206
      37.2000    0.00296473
      37.3000    0.00285534
      37.4000    0.00274822
      37.5000    0.00264250
      37.6000    0.00254416
      37.7000    0.00244777
      37.8000    0.00235266
      37.9000    0.00226427
      38.0000    0.00217772
      38.1000    0.00209232
      38.2000    0.00201289
      38.3000    0.00193529
      38.4000    0.00185873
      38.5000    0.00178733
      38.6000    0.00171788
      38.7000    0.00164937
      38.8000    0.00158519
      38.9000    0.00152314
      39.0000    0.00146195
      39.1000    0.00140425
      39.2000    0.00134894
      39.3000    0.00129439
      39.4000    0.00124250
      39.5000    0.00119328
      39.6000    0.00114474
      39.7000    0.00109807
      39.8000    0.00105436
      39.9000    0.00101127
      40.0000   0.000969290
      40.1000   0.000930581
      40.2000   0.000892415
      40.3000   0.000854790
      40.4000   0.000820410
      40.5000   0.000786646
      40.6000   0.000753359
      40.7000   0.000722403
      40.8000   0.000692587
      40.9000   0.000663198
      41.0000   0.000635305
      41.1000   0.000609023
      41.2000   0.000583123
      41.3000   0.000557990
      41.4000   0.000534905
      41.5000   0.000512151
      41.6000   0.000489729
      41.7000   0.000469235
      41.8000   0.000449264
      41.9000   0.000429585
      42.0000   0.000411093
      42.1000   0.000393617
      42.2000   0.000376398
      42.3000   0.000359691
      42.4000   0.000344420
      42.5000   0.000329373
      42.6000   0.000314549
      42.7000   0.000300958
      42.8000   0.000287837
      42.9000   0.000274911
      43.0000   0.000262605
      43.1000   0.000251192
      43.2000   0.000239950
      43.3000   0.000228878
      43.4000    0.00202996
      43.5000    0.00541343
      43.6000     0.0121944
      43.7000     0.0213574
      43.8000     0.0277152
      43.9000     0.0287613
      44.0000     0.0278084
      44.1000     0.0250346
      44.2000     0.0243220
      44.3000     0.0237872
      44.4000     0.0232667
      44.5000     0.0227644
      44.6000     0.0222637
      44.7000     0.0217647
      44.8000     0.0212921
      44.9000     0.0208247
      45.0000     0.0203589
      45.1000     0.0199023
      45.2000     0.0194658
      45.3000     0.0190309
      45.4000     0.0185974
      45.5000     0.0181823
      45.6000     0.0177766
      45.7000     0.0173723
      45.8000     0.0169702
      45.9000     0.0165924
      46.0000     0.0162158
      46.1000     0.0158405
      46.2000     0.0154877
      46.3000     0.0151726
      46.4000     0.0148585
      46.5000     0.0145455
      46.6000     0.0142497
      46.7000     0.0139629
      46.8000     0.0136771
      46.9000     0.0133922
      47.0000     0.0131296
      47.1000     0.0128694
      47.2000     0.0126100
      47.3000     0.0123542
      47.4000     0.0121122
      47.5000     0.0118709
      47.6000     0.0116304
      47.7000     0.0113965
      47.8000     0.0111724
      47.9000     0.0109490
      48.0000     0.0107264
      48.1000     0.0105118
      48.2000     0.0103034
      48.3000     0.0100957
      48.4000    0.00988872
      48.5000    0.00969201
      48.6000    0.00949977
      48.7000    0.00930819
      48.8000    0.00911723
      48.9000    0.00893633
      49.0000    0.00875791
      49.1000    0.00858010
      49.2000    0.00840290
      49.3000    0.00823575
      49.4000    0.00806997
      49.5000    0.00790474
      49.6000    0.00774007
      49.7000    0.00758538
      49.8000    0.00743142
      49.9000    0.00727799
      50.0000    0.00712519
      50.1000    0.00697944
      50.2000    0.00683852
      50.3000    0.00670004
      50.4000    0.00656421
      50.5000    0.00643096
      50.6000    0.00630020
      50.7000    0.00617184
      50.8000    0.00604575
      50.9000    0.00592234
      51.0000    0.00580142
      51.1000    0.00568293
      51.2000    0.00556655
      51.3000    0.00545246
      51.4000    0.00534083
      51.5000    0.00523105
      51.6000    0.00512328
      51.7000    0.00501741
      51.8000    0.00491259
      51.9000    0.00480972
      52.0000    0.00470872
      52.1000    0.00460979
      52.2000    0.00451263
      52.3000    0.00441717
      52.4000    0.00432392
      52.5000    0.00423242
      52.6000    0.00414129
      52.7000    0.00405058
      52.8000    0.00396152
      52.9000    0.00387442
      53.0000    0.00378923
      53.1000    0.00370561
      53.2000    0.00362379
      53.3000    0.00354352
      53.4000    0.00346484
      53.5000    0.00338791
      53.6000    0.00331245
      53.7000    0.00323844
      53.8000    0.00316603
      53.9000    0.00309504
      54.0000    0.00302559
      54.1000    0.00295778
      54.2000    0.00289126
      54.3000    0.00282598
      54.4000    0.00276210
      54.5000    0.00269949
      54.6000    0.00263821
      54.7000    0.00257838
      54.8000    0.00251977
      54.9000    0.00246229
      55.0000    0.00240607
      55.1000    0.00235096
      55.2000    0.00229501
      55.3000    0.00223853
      55.4000    0.00218322
      55.5000    0.00212906
      55.6000    0.00207622
      55.7000    0.00202461
      55.8000    0.00197410
      55.9000    0.00192479
      56.0000    0.00187691
      56.1000    0.00182938
      56.2000    0.00178232
      56.3000    0.00173646
      56.4000    0.00169163
      56.5000    0.00164781
      56.6000    0.00160506
      56.7000    0.00156338
      56.8000    0.00152264
      56.9000    0.00148290
      57.0000    0.00144475
      57.1000    0.00140787
      57.2000    0.00137181
      57.3000    0.00133655
      57.4000    0.00130217
      57.5000    0.00126863
      57.6000    0.00123585
      57.7000    0.00120381
      57.8000    0.00117261
      57.9000    0.00114217
      58.0000    0.00111245
      58.1000    0.00108340
      58.2000    0.00105511
      58.3000    0.00102749
      58.4000    0.00100050
      58.5000   0.000974152
      58.6000   0.000948505
      58.7000   0.000923499
      58.8000   0.000899072
      58.9000   0.000875217
      59.0000   0.000851941
      59.1000   0.000829265
      59.2000   0.000807138
      59.3000   0.000785559
      59.4000   0.000764515
      59.5000   0.000744024
      59.6000   0.000724054
      59.7000   0.000704552
      59.8000   0.000685507
      59.9000   0.000666928
      60.0000   0.000648875
      60.1000   0.000631273
      60.2000   0.000614106
      60.3000   0.000597367
      60.4000   0.000581042
      60.5000   0.000565160
      60.6000   0.000549664
      60.7000   0.000534557
      60.8000   0.000519834
      60.9000   0.000505470
      61.0000   0.000491483
      61.1000   0.000477865
      61.2000   0.000464596
      61.3000   0.000451671
      61.4000   0.000439080
      61.5000   0.000426814
      61.6000   0.000414876
      61.7000   0.000403273
      61.8000   0.000392115
      61.9000   0.000381295
      62.0000   0.000370749
      62.1000   0.000360477
      62.2000   0.000350497
      62.3000   0.000340774
      62.4000   0.000331290
      62.5000   0.000322044
      62.6000   0.000313033
      62.7000   0.000304274
      62.8000   0.000295989
      62.9000   0.000287928
      63.0000   0.000280076
      63.1000   0.000272424
      63.2000   0.000264957
      63.3000   0.000257672
      63.4000   0.000250573
      63.5000   0.000243674
      63.6000   0.000236955
      63.7000   0.000230409
      63.8000   0.000224033
      63.9000   0.000217819
      64.0000   0.000211762
      64.1000   0.000205863
      64.2000   0.000200126
      64.3000   0.000194549
      64.4000   0.000189115
      64.5000   0.000183819
      64.6000   0.000178658
      64.7000   0.000173630
      64.8000   0.000168731
      64.9000   0.000163960
      65.0000   0.000159319
      65.1000   0.000154813
      65.2000   0.000150429
      65.3000   0.000146159
      65.4000   0.000141999
      65.5000   0.000137948
      65.6000   0.000134001
      65.7000   0.000130160
      65.8000   0.000126424
      65.9000   0.000122792
      66.0000   0.000119264
      66.1000   0.000115838
      66.2000   0.000112503
      66.3000   0.000109256
      66.4000   0.000106094
      66.5000   0.000103015
      66.6000   0.000100018
      66.7000   9.71065e-05
      66.8000   9.42783e-05
      66.9000   9.15480e-05
      67.0000   8.89097e-05
      67.1000   8.63434e-05
      67.2000   8.38461e-05
      67.3000   8.14195e-05
      67.4000   7.90588e-05
      67.5000   7.67630e-05
      67.6000   7.45309e-05
      67.7000   7.23609e-05
      67.8000   7.02485e-05
      67.9000   6.81890e-05
      68.0000   6.61917e-05
      68.1000   6.42579e-05
      68.2000   6.23771e-05
      68.3000   6.05490e-05
      68.4000   5.87720e-05
      68.5000   5.70449e-05
      68.6000   5.53663e-05
      68.7000   5.37349e-05
      68.8000   5.21487e-05
      68.9000   5.06203e-05
      69.0000   4.92116e-05
      69.1000   4.79910e-05
      69.2000   4.68843e-05
      69.3000   4.58109e-05
      69.4000   4.47788e-05
      69.5000   4.37502e-05
      69.6000   4.27177e-05
      69.7000   4.17252e-05
      69.8000   4.07753e-05
      69.9000   3.98459e-05
      70.0000   3.89356e-05
      70.1000   3.80347e-05
      70.2000   3.72012e-05
      70.3000   3.64330e-05
      70.4000   3.56787e-05
      70.5000   3.49457e-05
      70.6000   3.42324e-05
      70.7000   3.35332e-05
      70.8000   3.28467e-05
      70.9000   3.21584e-05
      71.0000   3.14707e-05
      71.1000   3.08123e-05
      71.2000   3.01823e-05
      71.3000   2.95366e-05
      71.4000   2.88699e-05
      71.5000   2.82457e-05
      71.6000   2.76786e-05
      71.7000   2.71159e-05
      71.8000   2.65488e-05
      71.9000   2.60012e-05
      72.0000   2.54863e-05
