Filter: Al-poly/Ti-poly
observation_date 22-Sept-2013 22:40:45
wavelength effective area 
      1.00000   2.76604e-10
      1.10000   7.87990e-10
      1.20000   2.04351e-09
      1.30000   4.87276e-09
      1.40000   1.10214e-08
      1.50000   2.34289e-08
      1.60000   4.72406e-08
      1.70000   9.13085e-08
      1.80000   1.69178e-07
      1.90000   3.02484e-07
      2.00000   5.22926e-07
      2.10000   8.77963e-07
      2.20000   1.43843e-06
      2.30000   2.29666e-06
      2.40000   3.58002e-06
      2.50000   5.73212e-06
      2.60000   8.86437e-06
      2.70000   1.31998e-05
      2.80000   1.92783e-05
      2.90000   2.78641e-05
      3.00000   3.96423e-05
      3.10000   5.56700e-05
      3.20000   7.73179e-05
      3.30000   0.000106283
      3.40000   0.000144564
      3.50000   0.000194716
      3.60000   0.000261033
      3.70000   0.000346195
      3.80000   0.000457196
      3.90000   0.000600382
      4.00000   0.000783440
      4.10000    0.00101748
      4.20000    0.00131660
      4.30000    0.00169865
      4.40000    0.00218551
      4.50000    0.00280393
      4.60000    0.00358498
      4.70000    0.00458294
      4.80000    0.00585208
      4.90000    0.00737612
      5.00000    0.00954051
      5.10000     0.0121654
      5.20000     0.0155562
      5.30000     0.0197228
      5.40000     0.0249618
      5.50000     0.0316448
      5.60000     0.0388835
      5.70000     0.0503307
      5.80000     0.0587447
      5.90000     0.0892924
      6.00000      0.119482
      6.10000      0.151995
      6.20000      0.185775
      6.30000      0.217619
      6.40000      0.244494
      6.50000      0.263728
      6.60000      0.271571
      6.70000      0.278523
      6.80000      0.277385
      6.90000      0.361883
      7.00000      0.391300
      7.10000      0.411434
      7.20000      0.426710
      7.30000      0.438546
      7.40000      0.446792
      7.50000      0.452661
      7.60000      0.456278
      7.70000      0.456483
      7.80000      0.452462
      7.90000      0.448942
      8.00000      0.751758
      8.10000      0.820708
      8.20000      0.831689
      8.30000      0.838774
      8.40000      0.842580
      8.50000      0.844987
      8.60000      0.845740
      8.70000      0.845406
      8.80000      0.843712
      8.90000      0.841094
      9.00000      0.837502
      9.10000      0.832988
      9.20000      0.827725
      9.30000      0.821649
      9.40000      0.814898
      9.50000      0.807530
      9.60000      0.799511
      9.70000      0.790940
      9.80000      0.781963
      9.90000      0.772612
      10.0000      0.762944
      10.1000      0.752972
      10.2000      0.742721
      10.3000      0.732148
      10.4000      0.721279
      10.5000      0.710141
      10.6000      0.698771
      10.7000      0.687194
      10.8000      0.675425
      10.9000      0.663496
      11.0000      0.651422
      11.1000      0.639233
      11.2000      0.626938
      11.3000      0.614568
      11.4000      0.602124
      11.5000      0.589611
      11.6000      0.577046
      11.7000      0.564394
      11.8000      0.551723
      11.9000      0.538988
      12.0000      0.525633
      12.1000      0.514269
      12.2000      0.511941
      12.3000      0.504188
      12.4000      0.492746
      12.5000      0.481065
      12.6000      0.469346
      12.7000      0.457670
      12.8000      0.446070
      12.9000      0.434556
      13.0000      0.423164
      13.1000      0.411920
      13.2000      0.400835
      13.3000      0.389922
      13.4000      0.379193
      13.5000      0.368760
      13.6000      0.358602
      13.7000      0.348615
      13.8000      0.338796
      13.9000      0.329158
      14.0000      0.319700
      14.1000      0.310409
      14.2000      0.301287
      14.3000      0.292329
      14.4000      0.283526
      14.5000      0.274890
      14.6000      0.266423
      14.7000      0.258113
      14.8000      0.249963
      14.9000      0.241973
      15.0000      0.234145
      15.1000      0.226484
      15.2000      0.219016
      15.3000      0.211719
      15.4000      0.204588
      15.5000      0.197621
      15.6000      0.190829
      15.7000      0.184215
      15.8000      0.177805
      15.9000      0.171572
      16.0000      0.165510
      16.1000      0.159619
      16.2000      0.153934
      16.3000      0.148410
      16.4000      0.143032
      16.5000      0.137797
      16.6000      0.132716
      16.7000      0.127793
      16.8000      0.122999
      16.9000      0.118332
      17.0000      0.113812
      17.1000      0.109437
      17.2000      0.105178
      17.3000      0.101039
      17.4000     0.0971147
      17.5000     0.0933764
      17.6000     0.0897909
      17.7000     0.0863835
      17.8000     0.0832149
      17.9000     0.0801374
      18.0000     0.0771283
      18.1000     0.0742235
      18.2000     0.0713708
      18.3000     0.0685599
      18.4000     0.0657956
      18.5000     0.0630811
      18.6000     0.0604017
      18.7000     0.0577578
      18.8000     0.0552107
      18.9000     0.0527376
      19.0000     0.0503647
      19.1000     0.0480907
      19.2000     0.0458904
      19.3000     0.0438007
      19.4000     0.0417992
      19.5000     0.0398653
      19.6000     0.0380494
      19.7000     0.0362990
      19.8000     0.0346082
      19.9000     0.0330199
      20.0000     0.0314785
      20.1000     0.0299986
      20.2000     0.0285852
      20.3000     0.0272120
      20.4000     0.0259088
      20.5000     0.0246503
      20.6000     0.0234329
      20.7000     0.0222812
      20.8000     0.0211609
      20.9000     0.0200934
      21.0000     0.0191071
      21.1000     0.0181839
      21.2000     0.0174235
      21.3000     0.0167131
      21.4000     0.0161043
      21.5000     0.0156005
      21.6000     0.0152015
      21.7000     0.0147984
      21.8000     0.0143958
      21.9000     0.0139718
      22.0000     0.0135350
      22.1000     0.0130625
      22.2000     0.0125220
      22.3000     0.0119240
      22.4000     0.0111044
      22.5000     0.0102223
      22.6000    0.00851853
      22.7000    0.00773617
      22.8000     0.0114838
      22.9000     0.0156919
      23.0000     0.0195519
      23.1000     0.0217944
      23.2000     0.0224611
      23.3000     0.0221849
      23.4000     0.0214189
      23.5000     0.0206548
      23.6000     0.0198964
      23.7000     0.0191205
      23.8000     0.0183511
      23.9000     0.0176147
      24.0000     0.0168879
      24.1000     0.0161855
      24.2000     0.0154965
      24.3000     0.0148397
      24.4000     0.0141971
      24.5000     0.0135821
      24.6000     0.0129833
      24.7000     0.0124126
      24.8000     0.0118580
      24.9000     0.0113287
      25.0000     0.0108155
      25.1000     0.0103267
      25.2000    0.00985298
      25.3000    0.00940198
      25.4000    0.00896499
      25.5000    0.00855064
      25.6000    0.00814905
      25.7000    0.00776997
      25.8000    0.00740105
      25.9000    0.00705382
      26.0000    0.00671448
      26.1000    0.00639660
      26.2000    0.00608440
      26.3000    0.00579427
      26.4000    0.00550744
      26.5000    0.00524271
      26.6000    0.00498083
      26.7000    0.00473816
      26.8000    0.00450027
      26.9000    0.00427743
      27.0000    0.00406089
      27.1000    0.00385547
      27.2000    0.00365788
      27.3000     0.0154088
      27.4000     0.0419062
      27.5000     0.0608909
      27.6000     0.0591960
      27.7000     0.0575188
      27.8000     0.0558655
      27.9000     0.0542294
      28.0000     0.0526524
      28.1000     0.0511001
      28.2000     0.0495960
      28.3000     0.0481292
      28.4000     0.0466950
      28.5000     0.0453086
      28.6000     0.0439414
      28.7000     0.0426455
      28.8000     0.0413636
      28.9000     0.0401287
      29.0000     0.0389167
      29.1000     0.0377369
      29.2000     0.0365916
      29.3000     0.0354644
      29.4000     0.0343841
      29.5000     0.0333157
      29.6000     0.0322895
      29.7000     0.0312826
      29.8000     0.0303029
      29.9000     0.0293554
      30.0000     0.0284200
      30.1000     0.0275289
      30.2000     0.0266480
      30.3000     0.0274466
      30.4000     0.0291840
      30.5000     0.0303383
      30.6000     0.0294131
      30.7000     0.0284985
      30.8000     0.0276205
      30.9000     0.0267606
      31.0000     0.0259208
      31.1000     0.0251140
      31.2000     0.0243166
      31.3000     0.0235542
      31.4000     0.0228062
      31.5000     0.0220773
      31.6000     0.0213786
      31.7000     0.0206883
      31.8000     0.0200279
      31.9000     0.0193808
      32.0000     0.0187458
      32.1000     0.0181305
      32.2000     0.0175229
      32.3000     0.0169411
      32.4000     0.0163747
      32.5000     0.0158190
      32.6000     0.0152996
      32.7000     0.0147878
      32.8000     0.0142943
      32.9000     0.0138176
      33.0000     0.0133469
      33.1000     0.0129143
      33.2000     0.0124925
      33.3000     0.0120810
      33.4000     0.0116880
      33.5000     0.0112998
      33.6000     0.0109269
      33.7000     0.0105662
      33.8000     0.0102098
      33.9000    0.00987277
      34.0000    0.00954183
      34.1000    0.00921879
      34.2000    0.00891145
      34.3000    0.00860775
      34.4000    0.00831434
      34.5000    0.00803298
      34.6000    0.00775501
      34.7000    0.00748751
      34.8000    0.00722657
      34.9000    0.00696878
      35.0000    0.00672667
      35.1000    0.00648880
      35.2000    0.00625562
      35.3000    0.00603988
      35.4000    0.00582678
      35.5000    0.00561965
      35.6000    0.00542327
      35.7000    0.00522932
      35.8000    0.00504258
      35.9000    0.00486411
      36.0000    0.00468787
      36.1000    0.00451962
      36.2000    0.00435768
      36.3000    0.00419777
      36.4000    0.00404626
      36.5000    0.00389951
      36.6000    0.00375463
      36.7000    0.00361827
      36.8000    0.00348555
      36.9000    0.00335454
      37.0000    0.00323186
      37.1000    0.00311202
      37.2000    0.00299372
      37.3000    0.00288343
      37.4000    0.00277542
      37.5000    0.00266882
      37.6000    0.00256964
      37.7000    0.00247243
      37.8000    0.00237651
      37.9000    0.00228736
      38.0000    0.00220006
      38.1000    0.00211391
      38.2000    0.00203378
      38.3000    0.00195549
      38.4000    0.00187825
      38.5000    0.00180621
      38.6000    0.00173613
      38.7000    0.00166699
      38.8000    0.00160222
      38.9000    0.00153961
      39.0000    0.00147784
      39.1000    0.00141961
      39.2000    0.00136378
      39.3000    0.00130871
      39.4000    0.00125633
      39.5000    0.00120663
      39.6000    0.00115762
      39.7000    0.00111049
      39.8000    0.00106636
      39.9000    0.00102283
      40.0000   0.000980440
      40.1000   0.000941346
      40.2000   0.000902796
      40.3000   0.000864789
      40.4000   0.000830061
      40.5000   0.000795952
      40.6000   0.000762321
      40.7000   0.000731045
      40.8000   0.000700918
      40.9000   0.000671220
      41.0000   0.000643031
      41.1000   0.000616469
      41.2000   0.000590291
      41.3000   0.000564887
      41.4000   0.000541551
      41.5000   0.000518549
      41.6000   0.000495880
      41.7000   0.000475160
      41.8000   0.000454967
      41.9000   0.000435068
      42.0000   0.000416369
      42.1000   0.000398696
      42.2000   0.000381280
      42.3000   0.000364382
      42.4000   0.000348935
      42.5000   0.000333714
      42.6000   0.000318717
      42.7000   0.000304967
      42.8000   0.000291691
      42.9000   0.000278611
      43.0000   0.000266158
      43.1000   0.000254608
      43.2000   0.000243230
      43.3000   0.000232023
      43.4000    0.00205799
      43.5000    0.00547640
      43.6000     0.0122920
      43.7000     0.0214361
      43.8000     0.0277231
      43.9000     0.0287483
      44.0000     0.0278000
      44.1000     0.0250535
      44.2000     0.0243427
      44.3000     0.0238076
      44.4000     0.0232867
      44.5000     0.0227841
      44.6000     0.0222831
      44.7000     0.0217838
      44.8000     0.0213110
      44.9000     0.0208433
      45.0000     0.0203771
      45.1000     0.0199202
      45.2000     0.0194835
      45.3000     0.0190483
      45.4000     0.0186145
      45.5000     0.0181991
      45.6000     0.0177931
      45.7000     0.0173885
      45.8000     0.0169862
      45.9000     0.0166081
      46.0000     0.0162313
      46.1000     0.0158558
      46.2000     0.0155027
      46.3000     0.0151874
      46.4000     0.0148731
      46.5000     0.0145599
      46.6000     0.0142639
      46.7000     0.0139769
      46.8000     0.0136909
      46.9000     0.0134058
      47.0000     0.0131431
      47.1000     0.0128826
      47.2000     0.0126231
      47.3000     0.0123671
      47.4000     0.0121248
      47.5000     0.0118834
      47.6000     0.0116427
      47.7000     0.0114086
      47.8000     0.0111843
      47.9000     0.0109608
      48.0000     0.0107380
      48.1000     0.0105232
      48.2000     0.0103147
      48.3000     0.0101069
      48.4000    0.00989974
      48.5000    0.00970289
      48.6000    0.00951052
      48.7000    0.00931879
      48.8000    0.00912769
      48.9000    0.00894665
      49.0000    0.00876809
      49.1000    0.00859013
      49.2000    0.00841278
      49.3000    0.00824549
      49.4000    0.00807956
      49.5000    0.00791419
      49.6000    0.00774936
      49.7000    0.00759453
      49.8000    0.00744044
      49.9000    0.00728687
      50.0000    0.00713392
      50.1000    0.00698804
      50.2000    0.00684699
      50.3000    0.00670839
      50.4000    0.00657243
      50.5000    0.00643906
      50.6000    0.00630819
      50.7000    0.00617971
      50.8000    0.00605351
      50.9000    0.00592999
      51.0000    0.00580896
      51.1000    0.00569036
      51.2000    0.00557387
      51.3000    0.00545967
      51.4000    0.00534793
      51.5000    0.00523804
      51.6000    0.00513015
      51.7000    0.00502418
      51.8000    0.00491924
      51.9000    0.00481626
      52.0000    0.00471515
      52.1000    0.00461611
      52.2000    0.00451884
      52.3000    0.00442328
      52.4000    0.00432992
      52.5000    0.00423832
      52.6000    0.00414709
      52.7000    0.00405628
      52.8000    0.00396712
      52.9000    0.00387993
      53.0000    0.00379464
      53.1000    0.00371094
      53.2000    0.00362903
      53.3000    0.00354867
      53.4000    0.00346991
      53.5000    0.00339290
      53.6000    0.00331736
      53.7000    0.00324327
      53.8000    0.00317078
      53.9000    0.00309971
      54.0000    0.00303018
      54.1000    0.00296229
      54.2000    0.00289569
      54.3000    0.00283033
      54.4000    0.00276637
      54.5000    0.00270369
      54.6000    0.00264232
      54.7000    0.00258242
      54.8000    0.00252374
      54.9000    0.00246618
      55.0000    0.00240988
      55.1000    0.00235471
      55.2000    0.00229868
      55.3000    0.00224212
      55.4000    0.00218674
      55.5000    0.00213251
      55.6000    0.00207960
      55.7000    0.00202792
      55.8000    0.00197734
      55.9000    0.00192797
      56.0000    0.00188003
      56.1000    0.00183244
      56.2000    0.00178531
      56.3000    0.00173939
      56.4000    0.00169451
      56.5000    0.00165063
      56.6000    0.00160782
      56.7000    0.00156608
      56.8000    0.00152528
      56.9000    0.00148549
      57.0000    0.00144729
      57.1000    0.00141036
      57.2000    0.00137425
      57.3000    0.00133894
      57.4000    0.00130450
      57.5000    0.00127091
      57.6000    0.00123809
      57.7000    0.00120600
      57.8000    0.00117474
      57.9000    0.00114426
      58.0000    0.00111449
      58.1000    0.00108540
      58.2000    0.00105706
      58.3000    0.00102940
      58.4000    0.00100237
      58.5000   0.000975979
      58.6000   0.000950292
      58.7000   0.000925246
      58.8000   0.000900781
      58.9000   0.000876888
      59.0000   0.000853576
      59.1000   0.000830864
      59.2000   0.000808702
      59.3000   0.000787090
      59.4000   0.000766013
      59.5000   0.000745490
      59.6000   0.000725488
      59.7000   0.000705955
      59.8000   0.000686880
      59.9000   0.000668271
      60.0000   0.000650189
      60.1000   0.000632557
      60.2000   0.000615362
      60.3000   0.000598594
      60.4000   0.000582243
      60.5000   0.000566332
      60.6000   0.000550810
      60.7000   0.000535677
      60.8000   0.000520928
      60.9000   0.000506538
      61.0000   0.000492526
      61.1000   0.000478883
      61.2000   0.000465590
      61.3000   0.000452641
      61.4000   0.000440026
      61.5000   0.000427738
      61.6000   0.000415777
      61.7000   0.000404152
      61.8000   0.000392974
      61.9000   0.000382133
      62.0000   0.000371568
      62.1000   0.000361276
      62.2000   0.000351278
      62.3000   0.000341536
      62.4000   0.000332034
      62.5000   0.000322771
      62.6000   0.000313743
      62.7000   0.000304967
      62.8000   0.000296667
      62.9000   0.000288590
      63.0000   0.000280724
      63.1000   0.000273056
      63.2000   0.000265576
      63.3000   0.000258277
      63.4000   0.000251164
      63.5000   0.000244251
      63.6000   0.000237519
      63.7000   0.000230960
      63.8000   0.000224571
      63.9000   0.000218345
      64.0000   0.000212276
      64.1000   0.000206364
      64.2000   0.000200616
      64.3000   0.000195027
      64.4000   0.000189582
      64.5000   0.000184275
      64.6000   0.000179103
      64.7000   0.000174064
      64.8000   0.000169155
      64.9000   0.000164374
      65.0000   0.000159722
      65.1000   0.000155206
      65.2000   0.000150813
      65.3000   0.000146533
      65.4000   0.000142364
      65.5000   0.000138304
      65.6000   0.000134349
      65.7000   0.000130499
      65.8000   0.000126754
      65.9000   0.000123115
      66.0000   0.000119578
      66.1000   0.000116144
      66.2000   0.000112802
      66.3000   0.000109548
      66.4000   0.000106378
      66.5000   0.000103292
      66.6000   0.000100288
      66.7000   9.73698e-05
      66.8000   9.45350e-05
      66.9000   9.17984e-05
      67.0000   8.91539e-05
      67.1000   8.65815e-05
      67.2000   8.40781e-05
      67.3000   8.16458e-05
      67.4000   7.92794e-05
      67.5000   7.69781e-05
      67.6000   7.47405e-05
      67.7000   7.25652e-05
      67.8000   7.04476e-05
      67.9000   6.83830e-05
      68.0000   6.63807e-05
      68.1000   6.44420e-05
      68.2000   6.25565e-05
      68.3000   6.07237e-05
      68.4000   5.89422e-05
      68.5000   5.72107e-05
      68.6000   5.55277e-05
      68.7000   5.38921e-05
      68.8000   5.23018e-05
      68.9000   5.07694e-05
      69.0000   4.93569e-05
      69.1000   4.81332e-05
      69.2000   4.70237e-05
      69.3000   4.59475e-05
      69.4000   4.49128e-05
      69.5000   4.38815e-05
      69.6000   4.28463e-05
      69.7000   4.18512e-05
      69.8000   4.08988e-05
      69.9000   3.99670e-05
      70.0000   3.90542e-05
      70.1000   3.81509e-05
      70.2000   3.73153e-05
      70.3000   3.65451e-05
      70.4000   3.57888e-05
      70.5000   3.50539e-05
      70.6000   3.43387e-05
      70.7000   3.36377e-05
      70.8000   3.29493e-05
      70.9000   3.22593e-05
      71.0000   3.15696e-05
      71.1000   3.09095e-05
      71.2000   3.02778e-05
      71.3000   2.96304e-05
      71.4000   2.89619e-05
      71.5000   2.83359e-05
      71.6000   2.77673e-05
      71.7000   2.72031e-05
      71.8000   2.66344e-05
      71.9000   2.60853e-05
      72.0000   2.55690e-05
