Filter Be-thin
observation_date 2021-09-22 22:45:45
wavelength effective area
      1.00000   2.78437e-10
      1.10000   7.94894e-10
      1.20000   2.06653e-09
      1.30000   4.94174e-09
      1.40000   1.12137e-08
      1.50000   2.39245e-08
      1.60000   4.84350e-08
      1.70000   9.40348e-08
      1.80000   1.75076e-07
      1.90000   3.14679e-07
      2.00000   5.47089e-07
      2.10000   9.24094e-07
      2.20000   1.52378e-06
      2.30000   2.44953e-06
      2.40000   3.84567e-06
      2.50000   5.87719e-06
      2.60000   8.96901e-06
      2.70000   1.33716e-05
      2.80000   1.95536e-05
      2.90000   2.82993e-05
      3.00000   4.03169e-05
      3.10000   5.66992e-05
      3.20000   7.88664e-05
      3.30000   0.000108582
      3.40000   0.000147933
      3.50000   0.000199588
      3.60000   0.000268034
      3.70000   0.000356119
      3.80000   0.000471174
      3.90000   0.000619921
      4.00000   0.000810519
      4.10000    0.00105477
      4.20000    0.00136773
      4.30000    0.00176844
      4.40000    0.00228036
      4.50000    0.00293226
      4.60000    0.00375770
      4.70000    0.00481508
      4.80000    0.00616335
      4.90000    0.00778734
      5.00000     0.0100976
      5.10000     0.0129080
      5.20000     0.0165481
      5.30000     0.0210344
      5.40000     0.0266916
      5.50000     0.0339270
      5.60000     0.0417982
      5.70000     0.0542475
      5.80000     0.0634890
      5.90000     0.0967653
      6.00000      0.129833
      6.10000      0.165609
      6.20000      0.202956
      6.30000      0.238401
      6.40000      0.268593
      6.50000      0.290543
      6.60000      0.300036
      6.70000      0.308615
      6.80000      0.308238
      6.90000      0.403303
      7.00000      0.437355
      7.10000      0.461180
      7.20000      0.479646
      7.30000      0.494253
      7.40000      0.504870
      7.50000      0.512840
      7.60000      0.518289
      7.70000      0.519867
      7.80000      0.516619
      7.90000      0.513918
      8.00000      0.739841
      8.10000      0.806155
      8.20000      0.815331
      8.30000      0.820715
      8.40000      0.822660
      8.50000      0.823118
      8.60000      0.821854
      8.70000      0.819446
      8.80000      0.815640
      8.90000      0.810872
      9.00000      0.805096
      9.10000      0.798378
      9.20000      0.790897
      9.30000      0.782593
      9.40000      0.773602
      9.50000      0.763987
      9.60000      0.753724
      9.70000      0.742917
      9.80000      0.731669
      9.90000      0.720017
      10.0000      0.708019
      10.1000      0.695700
      10.2000      0.683094
      10.3000      0.670192
      10.4000      0.657033
      10.5000      0.643648
      10.6000      0.630073
      10.7000      0.616334
      10.8000      0.602460
      10.9000      0.588488
      11.0000      0.574431
      11.1000      0.560328
      11.2000      0.546191
      11.3000      0.532051
      11.4000      0.517913
      11.5000      0.503786
      11.6000      0.489694
      11.7000      0.475617
      11.8000      0.461606
      11.9000      0.447585
      12.0000      0.433124
      12.1000      0.420333
      12.2000      0.414982
      12.3000      0.405279
      12.4000      0.392695
      12.5000      0.380029
      12.6000      0.367452
      12.7000      0.355033
      12.8000      0.342797
      12.9000      0.330753
      13.0000      0.318925
      13.1000      0.307327
      13.2000      0.295987
      13.3000      0.284965
      13.4000      0.274243
      13.5000      0.263810
      13.6000      0.253677
      13.7000      0.243803
      13.8000      0.234182
      13.9000      0.224823
      14.0000      0.215720
      14.1000      0.206854
      14.2000      0.198216
      14.3000      0.189809
      14.4000      0.181637
      14.5000      0.173716
      14.6000      0.166050
      14.7000      0.158614
      14.8000      0.151408
      14.9000      0.144427
      15.0000      0.137671
      15.1000      0.131140
      15.2000      0.124871
      15.3000      0.118829
      15.4000      0.112999
      15.5000      0.107377
      15.6000      0.101965
      15.7000     0.0967766
      15.8000     0.0918195
      15.9000     0.0870542
      16.0000     0.0824745
      16.1000     0.0780763
      16.2000     0.0738991
      16.3000     0.0699049
      16.4000     0.0660713
      16.5000     0.0623932
      16.6000     0.0588923
      16.7000     0.0555690
      16.8000     0.0523840
      16.9000     0.0493327
      17.0000     0.0464401
      17.1000     0.0437156
      17.2000     0.0411202
      17.3000     0.0386484
      17.4000     0.0363332
      17.5000     0.0341368
      17.6000     0.0320538
      17.7000     0.0301121
      17.8000     0.0283525
      17.9000     0.0266742
      18.0000     0.0250650
      18.1000     0.0235644
      18.2000     0.0221139
      18.3000     0.0207064
      18.4000     0.0193540
      18.5000     0.0180591
      18.6000     0.0168063
      18.7000     0.0156075
      18.8000     0.0144864
      18.9000     0.0134192
      19.0000     0.0124299
      19.1000     0.0115077
      19.2000     0.0106311
      19.3000    0.00982582
      19.4000    0.00908108
      19.5000    0.00837978
      19.6000    0.00776112
      19.7000    0.00717684
      19.8000    0.00662327
      19.9000    0.00612380
      20.0000    0.00564755
      20.1000    0.00520476
      20.2000    0.00479831
      20.3000    0.00441079
      20.4000    0.00405985
      20.5000    0.00373027
      20.6000    0.00341984
      20.7000    0.00314103
      20.8000    0.00287474
      20.9000    0.00263287
      21.0000    0.00240819
      21.1000    0.00219672
      21.2000    0.00200798
      21.3000    0.00182746
      21.4000    0.00166584
      21.5000    0.00151469
      21.6000    0.00137408
      21.7000    0.00124786
      21.8000    0.00112698
      21.9000    0.00102064
      22.0000   0.000919046
      22.1000   0.000827729
      22.2000   0.000742585
      22.3000   0.000662859
      22.4000   0.000583092
      22.5000   0.000503687
      22.6000   0.000404001
      22.7000   0.000329716
      22.8000   0.000371151
      22.9000   0.000429615
      23.0000   0.000508071
      23.1000   0.000539785
      23.2000   0.000529033
      23.3000   0.000496682
      23.4000   0.000453743
      23.5000   0.000415070
      23.6000   0.000377593
      23.7000   0.000344216
      23.8000   0.000311500
      23.9000   0.000283461
      24.0000   0.000256095
      24.1000   0.000232351
      24.2000   0.000209490
      24.3000   0.000189638
      24.4000   0.000170728
      24.5000   0.000154186
      24.6000   0.000138584
      24.7000   0.000124913
      24.8000   0.000112103
      24.9000   0.000100851
      25.0000   9.03567e-05
      25.1000   8.11545e-05
      25.2000   7.25818e-05
      25.3000   6.50886e-05
      25.4000   5.80986e-05
      25.5000   5.20344e-05
      25.6000   4.63498e-05
      25.7000   4.14668e-05
      25.8000   3.68502e-05
      25.9000   3.29391e-05
      26.0000   2.91959e-05
      26.1000   2.60783e-05
      26.2000   2.30469e-05
      26.3000   2.05768e-05
      26.4000   1.81272e-05
      26.5000   1.61798e-05
      26.6000   1.42448e-05
      26.7000   1.26770e-05
      26.8000   1.11616e-05
      26.9000   9.89658e-06
      27.0000   8.71484e-06
      27.1000   7.69369e-06
      27.2000   6.77623e-06
      27.3000   5.96476e-06
      27.4000   5.28348e-06
      27.5000   4.64139e-06
      27.6000   4.10281e-06
      27.7000   3.57446e-06
      27.8000   3.16208e-06
      27.9000   2.75234e-06
      28.0000   2.42500e-06
      28.1000   2.11527e-06
      28.2000   1.85161e-06
      28.3000   1.61903e-06
      28.4000   1.40733e-06
      28.5000   1.23385e-06
      28.6000   1.06452e-06
      28.7000   9.36125e-07
      28.8000   8.08577e-07
      28.9000   7.06878e-07
      29.0000   6.12966e-07
      29.1000   5.30959e-07
      29.2000   4.62293e-07
      29.3000   3.96585e-07
      29.4000   3.46749e-07
      29.5000   2.97251e-07
      29.6000   2.58576e-07
      29.7000   2.22920e-07
      29.8000   1.91641e-07
      29.9000   1.66146e-07
      30.0000   1.41109e-07
      30.1000   1.23019e-07
      30.2000   1.05055e-07
      30.3000   9.16390e-08
      30.4000   8.08463e-08
      30.5000   7.03950e-08
      30.6000   6.10039e-08
      30.7000   5.16784e-08
      30.8000   4.45373e-08
      30.9000   3.80820e-08
      31.0000   3.22927e-08
      31.1000   2.79464e-08
      31.2000   2.36308e-08
      31.3000   2.04075e-08
      31.4000   1.74337e-08
      31.5000   1.47713e-08
      31.6000   1.27390e-08
      31.7000   1.07212e-08
      31.8000   9.21940e-09
      31.9000   7.85432e-09
      32.0000   6.61622e-09
      32.1000   5.72599e-09
      32.2000   4.84219e-09
      32.3000   4.15532e-09
      32.4000   3.55740e-09
      32.5000   2.98463e-09
      32.6000   2.58392e-09
      32.7000   2.18607e-09
      32.8000   1.85579e-09
      32.9000   1.59094e-09
      33.0000   1.32801e-09
      33.1000   1.14320e-09
      33.2000   9.69966e-10
      33.3000   8.11457e-10
      33.4000   6.98036e-10
      33.5000   5.85415e-10
      33.6000   4.95245e-10
      33.7000   4.22178e-10
      33.8000   3.49615e-10
      33.9000   2.99565e-10
      34.0000   2.52902e-10
      34.1000   2.09342e-10
      34.2000   1.79619e-10
      34.3000   1.50094e-10
      34.4000   1.25365e-10
      34.5000   1.06732e-10
      34.6000   8.82247e-11
      34.7000   7.44180e-11
      34.8000   6.28313e-11
      34.9000   5.13219e-11
      35.0000   4.37574e-11
      35.1000   3.66434e-11
      35.2000   2.98659e-11
      35.3000   2.55131e-11
      35.4000   2.11897e-11
      35.5000   1.73708e-11
      35.6000   1.47529e-11
      35.7000   1.21527e-11
      35.8000   1.00195e-11
      35.9000   8.46160e-12
      36.0000   6.91424e-12
      36.1000   5.73152e-12
      36.2000   4.81457e-12
      36.3000   3.90387e-12
      36.4000   3.25200e-12
      36.5000   2.71825e-12
      36.6000   2.18819e-12
      36.7000   1.83027e-12
      36.8000   1.52309e-12
      36.9000   1.21804e-12
      37.0000   1.02182e-12
      37.1000   8.47054e-13
      37.2000   6.73492e-13
      37.3000   5.65867e-13
      37.4000   4.67609e-13
      37.5000   3.70037e-13
      37.6000   3.10849e-13
      37.7000   2.56277e-13
      37.8000   2.02088e-13
      37.9000   1.69384e-13
      38.0000   1.39440e-13
      38.1000   1.09706e-13
      38.2000   9.15337e-14
      38.3000   7.53033e-14
      38.4000   5.91867e-14
      38.5000   4.90364e-14
      38.6000   4.03549e-14
      38.7000   3.17347e-14
      38.8000   2.60407e-14
      38.9000   2.14584e-14
      39.0000   1.69084e-14
      39.1000   1.37056e-14
      39.2000   1.13184e-14
      39.3000   8.94799e-15
      39.4000   7.13861e-15
      39.5000   5.89764e-15
      39.6000   4.66559e-15
      39.7000   3.64440e-15
      39.8000   3.02194e-15
      39.9000   2.40394e-15
      40.0000   1.83900e-15
      40.1000   1.53192e-15
      40.2000   1.22705e-15
      40.3000   9.24420e-16
      40.4000   7.68318e-16
      40.5000   6.20126e-16
      40.6000   4.73000e-16
      40.7000   3.80917e-16
      40.8000   3.09951e-16
      40.9000   2.39506e-16
      41.0000   1.86501e-16
      41.1000   1.53065e-16
      41.2000   1.19875e-16
      41.3000   9.01299e-17
      41.4000   7.46330e-17
      41.5000   5.92479e-17
      41.6000   4.39764e-17
      41.7000   3.59012e-17
      41.8000   2.88826e-17
      41.9000   2.19154e-17
      42.0000   1.70207e-17
      42.1000   1.38716e-17
      42.2000   1.07455e-17
      42.3000   7.94542e-18
      42.4000   6.55656e-18
      42.5000   5.17780e-18
      42.6000   3.80930e-18
      42.7000   3.04747e-18
      42.8000   2.45001e-18
      42.9000   1.85691e-18
      43.0000   1.39190e-18
      43.1000   1.13749e-18
      43.2000   8.84973e-19
      43.3000   6.34332e-19
      43.4000   6.34672e-19
      43.5000   7.42505e-19
      43.6000   8.85634e-19
      43.7000   9.50748e-19
      43.8000   8.39865e-19
      43.9000   6.51978e-19
      44.0000   4.64586e-19
      44.1000   3.82352e-19
      44.2000   3.04849e-19
      44.3000   2.27557e-19
      44.4000   1.70145e-19
      44.5000   1.38783e-19
      44.6000   1.07505e-19
      44.7000   7.63118e-20
      44.8000   6.15456e-20
      44.9000   4.91327e-20
      45.0000   3.67526e-20
      45.1000   2.65942e-20
      45.2000   2.17656e-20
      45.3000   1.69503e-20
      45.4000   1.21472e-20
      45.5000   9.35986e-21
      45.6000   7.52452e-21
      45.7000   5.69414e-21
      45.8000   3.91111e-21
      45.9000   3.22596e-21
      46.0000   2.54260e-21
      46.1000   1.86105e-21
      46.2000   1.33882e-21
      46.3000   1.08970e-21
      46.4000   8.41265e-22
      46.5000   5.93470e-22
      46.6000   4.51350e-22
      46.7000   3.62127e-22
      46.8000   2.73142e-22
      46.9000   1.84388e-22
      47.0000   1.49367e-22
      47.1000   1.18073e-22
      47.2000   8.68612e-23
      47.3000   5.93120e-23
      47.4000   4.85343e-23
      47.5000   3.77843e-23
      47.6000   2.70630e-23
      47.7000   1.90972e-23
      47.8000   1.54782e-23
      47.9000   1.18682e-23
      48.0000   8.26809e-24
      48.1000   6.03474e-24
      48.2000   4.84687e-24
      48.3000   3.66205e-24
      48.4000   2.48036e-24
      48.5000   1.87127e-24
      48.6000   1.49046e-24
      48.7000   1.11064e-24
      48.8000   7.31773e-25
      48.9000   5.69224e-25
      49.0000   4.50128e-25
      49.1000   3.31345e-25
      49.2000   2.12864e-25
      49.3000   1.72816e-25
      49.4000   1.39631e-25
      49.5000   1.06532e-25
      49.6000   7.35182e-26
      49.7000   6.62040e-26
      49.8000   5.95413e-26
      49.9000   5.28959e-26
      50.0000   4.62679e-26
      50.1000   4.05800e-26
      50.2000   3.27544e-26
      50.3000   2.64835e-26
      50.4000   2.29096e-26
      50.5000   2.06460e-26
      50.6000   1.84341e-26
      50.7000   1.42478e-26
      50.8000   1.18734e-26
      50.9000   6.50153e-27
      51.0000   4.35598e-27
      51.1000   3.52180e-27
      51.2000   3.52875e-27
      51.3000   3.16047e-27
      51.4000   1.94901e-27
      51.5000   1.17530e-27
      51.6000   8.28886e-28
      51.7000   5.58958e-28
      51.8000   4.22762e-28
      51.9000   3.51793e-28
      52.0000   2.78734e-28
      52.1000   1.92663e-28
      52.2000   1.47394e-28
      52.3000   9.70841e-29
      52.4000   6.33516e-29
      52.5000   5.00617e-29
      52.6000   4.45032e-29
      52.7000   3.79668e-29
      52.8000   2.58071e-29
      52.9000   1.47612e-29
      53.0000   9.87106e-30
      53.1000   6.50878e-30
      53.2000   4.36723e-30
      53.3000   2.89842e-30
      53.4000   1.89920e-30
      53.5000   1.08406e-30
      53.6000   5.47921e-31
      53.7000   3.20087e-31
      53.8000   2.39060e-31
      53.9000   1.64176e-31
      54.0000   1.10386e-31
      54.1000   7.18267e-32
      54.2000   5.08978e-32
      54.3000   3.06573e-32
      54.4000   1.29839e-32
      54.5000   7.08961e-33
      54.6000   5.07839e-33
      54.7000   3.85364e-33
      54.8000   2.70747e-33
      54.9000   1.83566e-33
      55.0000   1.33586e-33
      55.1000   9.66056e-34
      55.2000   6.93385e-34
      55.3000   6.40776e-34
      55.4000   5.71232e-34
      55.5000   4.10395e-34
      55.6000   2.63113e-34
      55.7000   1.89337e-34
      55.8000   1.29286e-34
      55.9000   9.06426e-35
      56.0000   6.63102e-35
      56.1000   4.58254e-35
      56.2000   4.24606e-35
      56.3000   3.46266e-35
      56.4000   2.50788e-35
      56.5000   1.72848e-35
      56.6000   1.19092e-35
      56.7000   8.67704e-36
      56.8000   6.36587e-36
      56.9000   4.51070e-36
      57.0000   3.01200e-36
      57.1000   2.01147e-36
      57.2000   1.38532e-36
      57.3000   9.80590e-37
      57.4000   7.00300e-37
      57.5000   4.96863e-37
      57.6000   3.23093e-37
      57.7000   2.24565e-37
      57.8000   2.03512e-37
      57.9000   1.52381e-37
      58.0000   1.08566e-37
      58.1000   7.16039e-38
      58.2000   4.12164e-38
      58.3000   2.71122e-38
      58.4000   2.05107e-38
      58.5000   1.63539e-38
      58.6000   1.11620e-38
      58.7000   7.53832e-39
      58.8000   5.06016e-39
      58.9000   3.40869e-39
      59.0000   2.47671e-39
      59.1000   1.83782e-39
      59.2000   1.35940e-39
      59.3000   1.00207e-39
      59.4000   7.35949e-40
      59.5000   5.18350e-40
      59.6000   3.42877e-40
      59.7000   2.62561e-40
      59.8000   1.82497e-40
      59.9000   1.08469e-40
      60.0000   7.98810e-41
      60.1000   5.89274e-41
      60.2000   4.33338e-41
      60.3000   3.17548e-41
      60.4000   2.32013e-41
      60.5000   1.71000e-41
      60.6000   1.27098e-41
      60.7000   1.00067e-41
      60.8000   8.25925e-42
      60.9000   6.80190e-42
      61.0000   5.62341e-42
      61.1000   4.65792e-42
      61.2000   3.87599e-42
      61.3000   3.21037e-42
      61.4000   2.65826e-42
      61.5000   2.21125e-42
      61.6000   1.75723e-42
      61.7000   1.38308e-42
      61.8000   1.08601e-42
      61.9000   8.58996e-43
      62.0000   6.58610e-43
      62.1000   4.76441e-43
      62.2000   3.34910e-43
      62.3000   2.42425e-43
      62.4000   2.01787e-43
      62.5000   1.72360e-43
      62.6000   1.49939e-43
      62.7000   1.27518e-43
      62.8000   1.12104e-43
      62.9000   8.26766e-44
      63.0000   5.74532e-44
      63.1000   3.78351e-44
      63.2000   3.22299e-44
      63.3000   2.52234e-44
      63.4000   2.24208e-44
      63.5000   1.54143e-44
      63.6000   1.26117e-44
      63.7000   9.80909e-45
      63.8000   9.80909e-45
      63.9000   7.00649e-45
      64.0000   2.80260e-45
      64.1000   2.80260e-45
      64.2000   2.80260e-45
      64.3000   2.80260e-45
      64.4000       0.00000
      64.5000       0.00000
      64.6000       0.00000
      64.7000       0.00000
      64.8000       0.00000
      64.9000       0.00000
      65.0000       0.00000
      65.1000       0.00000
      65.2000       0.00000
      65.3000       0.00000
      65.4000       0.00000
      65.5000       0.00000
      65.6000       0.00000
      65.7000       0.00000
      65.8000       0.00000
      65.9000       0.00000
      66.0000       0.00000
      66.1000       0.00000
      66.2000       0.00000
      66.3000       0.00000
      66.4000       0.00000
      66.5000       0.00000
      66.6000       0.00000
      66.7000       0.00000
      66.8000       0.00000
      66.9000       0.00000
      67.0000       0.00000
      67.1000       0.00000
      67.2000       0.00000
      67.3000       0.00000
      67.4000       0.00000
      67.5000       0.00000
      67.6000       0.00000
      67.7000       0.00000
      67.8000       0.00000
      67.9000       0.00000
      68.0000       0.00000
      68.1000       0.00000
      68.2000       0.00000
      68.3000       0.00000
      68.4000       0.00000
      68.5000       0.00000
      68.6000       0.00000
      68.7000       0.00000
      68.8000       0.00000
      68.9000       0.00000
      69.0000       0.00000
      69.1000       0.00000
      69.2000       0.00000
      69.3000       0.00000
      69.4000       0.00000
      69.5000       0.00000
      69.6000       0.00000
      69.7000       0.00000
      69.8000       0.00000
      69.9000       0.00000
      70.0000       0.00000
      70.1000       0.00000
      70.2000       0.00000
      70.3000       0.00000
      70.4000       0.00000
      70.5000       0.00000
      70.6000       0.00000
      70.7000       0.00000
      70.8000       0.00000
      70.9000       0.00000
      71.0000       0.00000
      71.1000       0.00000
      71.2000       0.00000
      71.3000       0.00000
      71.4000       0.00000
      71.5000       0.00000
      71.6000       0.00000
      71.7000       0.00000
      71.8000       0.00000
      71.9000       0.00000
      72.0000       0.00000
