Filter Be-thin
observation_date 22Sept2022
wavelength effective area
      1.00000   2.78436e-10
      1.10000   7.94894e-10
      1.20000   2.06653e-09
      1.30000   4.94173e-09
      1.40000   1.12137e-08
      1.50000   2.39244e-08
      1.60000   4.84350e-08
      1.70000   9.40347e-08
      1.80000   1.75076e-07
      1.90000   3.14678e-07
      2.00000   5.47088e-07
      2.10000   9.24092e-07
      2.20000   1.52377e-06
      2.30000   2.44952e-06
      2.40000   3.84565e-06
      2.50000   5.87717e-06
      2.60000   8.96896e-06
      2.70000   1.33715e-05
      2.80000   1.95534e-05
      2.90000   2.82991e-05
      3.00000   4.03166e-05
      3.10000   5.66987e-05
      3.20000   7.88657e-05
      3.30000   0.000108581
      3.40000   0.000147931
      3.50000   0.000199586
      3.60000   0.000268031
      3.70000   0.000356114
      3.80000   0.000471167
      3.90000   0.000619911
      4.00000   0.000810505
      4.10000    0.00105475
      4.20000    0.00136770
      4.30000    0.00176840
      4.40000    0.00228031
      4.50000    0.00293219
      4.60000    0.00375760
      4.70000    0.00481495
      4.80000    0.00616316
      4.90000    0.00778709
      5.00000     0.0100972
      5.10000     0.0129075
      5.20000     0.0165475
      5.30000     0.0210335
      5.40000     0.0266904
      5.50000     0.0339255
      5.60000     0.0417962
      5.70000     0.0542448
      5.80000     0.0634857
      5.90000     0.0967600
      6.00000      0.129825
      6.10000      0.165599
      6.20000      0.202943
      6.30000      0.238385
      6.40000      0.268575
      6.50000      0.290522
      6.60000      0.300014
      6.70000      0.308591
      6.80000      0.308212
      6.90000      0.403268
      7.00000      0.437315
      7.10000      0.461137
      7.20000      0.479599
      7.30000      0.494204
      7.40000      0.504817
      7.50000      0.512784
      7.60000      0.518230
      7.70000      0.519806
      7.80000      0.516555
      7.90000      0.513853
      8.00000      0.739743
      8.10000      0.806045
      8.20000      0.815216
      8.30000      0.820595
      8.40000      0.822536
      8.50000      0.822989
      8.60000      0.821722
      8.70000      0.819309
      8.80000      0.815499
      8.90000      0.810728
      9.00000      0.804949
      9.10000      0.798227
      9.20000      0.790742
      9.30000      0.782435
      9.40000      0.773441
      9.50000      0.763824
      9.60000      0.753558
      9.70000      0.742749
      9.80000      0.731498
      9.90000      0.719845
      10.0000      0.707844
      10.1000      0.695523
      10.2000      0.682916
      10.3000      0.670012
      10.4000      0.656852
      10.5000      0.643466
      10.6000      0.629889
      10.7000      0.616150
      10.8000      0.602275
      10.9000      0.588303
      11.0000      0.574247
      11.1000      0.560143
      11.2000      0.546007
      11.3000      0.531867
      11.4000      0.517729
      11.5000      0.503603
      11.6000      0.489511
      11.7000      0.475435
      11.8000      0.461426
      11.9000      0.447406
      12.0000      0.432946
      12.1000      0.420157
      12.2000      0.414804
      12.3000      0.405101
      12.4000      0.392519
      12.5000      0.379855
      12.6000      0.367280
      12.7000      0.354863
      12.8000      0.342629
      12.9000      0.330588
      13.0000      0.318762
      13.1000      0.307167
      13.2000      0.295830
      13.3000      0.284810
      13.4000      0.274091
      13.5000      0.263661
      13.6000      0.253531
      13.7000      0.243660
      13.8000      0.234042
      13.9000      0.224686
      14.0000      0.215586
      14.1000      0.206723
      14.2000      0.198088
      14.3000      0.189684
      14.4000      0.181516
      14.5000      0.173597
      14.6000      0.165934
      14.7000      0.158502
      14.8000      0.151299
      14.9000      0.144321
      15.0000      0.137568
      15.1000      0.131040
      15.2000      0.124774
      15.3000      0.118735
      15.4000      0.112908
      15.5000      0.107289
      15.6000      0.101880
      15.7000     0.0966947
      15.8000     0.0917404
      15.9000     0.0869779
      16.0000     0.0824011
      16.1000     0.0780056
      16.2000     0.0738311
      16.3000     0.0698394
      16.4000     0.0660085
      16.5000     0.0623330
      16.6000     0.0588345
      16.7000     0.0555136
      16.8000     0.0523309
      16.9000     0.0492819
      17.0000     0.0463916
      17.1000     0.0436692
      17.2000     0.0410758
      17.3000     0.0386061
      17.4000     0.0362925
      17.5000     0.0340982
      17.6000     0.0320170
      17.7000     0.0300768
      17.8000     0.0283191
      17.9000     0.0266423
      18.0000     0.0250348
      18.1000     0.0235356
      18.2000     0.0220865
      18.3000     0.0206804
      18.4000     0.0193294
      18.5000     0.0180358
      18.6000     0.0167843
      18.7000     0.0155869
      18.8000     0.0144669
      18.9000     0.0134009
      19.0000     0.0124127
      19.1000     0.0114916
      19.2000     0.0106160
      19.3000    0.00981169
      19.4000    0.00906784
      19.5000    0.00836739
      19.6000    0.00774951
      19.7000    0.00716596
      19.8000    0.00661310
      19.9000    0.00611429
      20.0000    0.00563866
      20.1000    0.00519647
      20.2000    0.00479058
      20.3000    0.00440358
      20.4000    0.00405315
      20.5000    0.00372404
      20.6000    0.00341405
      20.7000    0.00313565
      20.8000    0.00286976
      20.9000    0.00262825
      21.0000    0.00240391
      21.1000    0.00219276
      21.2000    0.00200433
      21.3000    0.00182410
      21.4000    0.00166274
      21.5000    0.00151184
      21.6000    0.00137146
      21.7000    0.00124546
      21.8000    0.00112478
      21.9000    0.00101863
      22.0000   0.000917214
      22.1000   0.000826058
      22.2000   0.000741071
      22.3000   0.000661489
      22.4000   0.000581876
      22.5000   0.000502623
      22.6000   0.000403139
      22.7000   0.000327822
      22.8000   0.000369551
      22.9000   0.000430407
      23.0000   0.000507612
      23.1000   0.000539415
      23.2000   0.000528168
      23.3000   0.000495862
      23.4000   0.000452986
      23.5000   0.000414370
      23.6000   0.000376949
      23.7000   0.000343623
      23.8000   0.000310957
      23.9000   0.000282962
      24.0000   0.000255640
      24.1000   0.000231933
      24.2000   0.000209109
      24.3000   0.000189290
      24.4000   0.000170411
      24.5000   0.000153897
      24.6000   0.000138322
      24.7000   0.000124674
      24.8000   0.000111886
      24.9000   0.000100654
      25.0000   9.01786e-05
      25.1000   8.09926e-05
      25.2000   7.24358e-05
      25.3000   6.49563e-05
      25.4000   5.79793e-05
      25.5000   5.19263e-05
      25.6000   4.62525e-05
      25.7000   4.13791e-05
      25.8000   3.67715e-05
      25.9000   3.28681e-05
      26.0000   2.91324e-05
      26.1000   2.60210e-05
      26.2000   2.29958e-05
      26.3000   2.05307e-05
      26.4000   1.80862e-05
      26.5000   1.61429e-05
      26.6000   1.42120e-05
      26.7000   1.26475e-05
      26.8000   1.11354e-05
      26.9000   9.87313e-06
      27.0000   8.69403e-06
      27.1000   7.67513e-06
      27.2000   6.75974e-06
      27.3000   5.95010e-06
      27.4000   5.27039e-06
      27.5000   4.62979e-06
      27.6000   4.09246e-06
      27.7000   3.56537e-06
      27.8000   3.15395e-06
      27.9000   2.74521e-06
      28.0000   2.41865e-06
      28.1000   2.10970e-06
      28.2000   1.84668e-06
      28.3000   1.61469e-06
      28.4000   1.40352e-06
      28.5000   1.23048e-06
      28.6000   1.06159e-06
      28.7000   9.33522e-07
      28.8000   8.06310e-07
      28.9000   7.04878e-07
      29.0000   6.11219e-07
      29.1000   5.29431e-07
      29.2000   4.60952e-07
      29.3000   3.95425e-07
      29.4000   3.45726e-07
      29.5000   2.96367e-07
      29.6000   2.57800e-07
      29.7000   2.22246e-07
      29.8000   1.91055e-07
      29.9000   1.65635e-07
      30.0000   1.40671e-07
      30.1000   1.22635e-07
      30.2000   1.04723e-07
      30.3000   9.13475e-08
      30.4000   8.05873e-08
      30.5000   7.01673e-08
      30.6000   6.08052e-08
      30.7000   5.15087e-08
      30.8000   4.43898e-08
      30.9000   3.79550e-08
      31.0000   3.21839e-08
      31.1000   2.78516e-08
      31.2000   2.35500e-08
      31.3000   2.03372e-08
      31.4000   1.73732e-08
      31.5000   1.47196e-08
      31.6000   1.26940e-08
      31.7000   1.06830e-08
      31.8000   9.18636e-09
      31.9000   7.82595e-09
      32.0000   6.59212e-09
      32.1000   5.70501e-09
      32.2000   4.82429e-09
      32.3000   4.13984e-09
      32.4000   3.54404e-09
      32.5000   2.97331e-09
      32.6000   2.57402e-09
      32.7000   2.17765e-09
      32.8000   1.84862e-09
      32.9000   1.58475e-09
      33.0000   1.32280e-09
      33.1000   1.13864e-09
      33.2000   9.66080e-10
      33.3000   8.08208e-10
      33.4000   6.95224e-10
      33.5000   5.83040e-10
      33.6000   4.93223e-10
      33.7000   4.20443e-10
      33.8000   3.48168e-10
      33.9000   2.98318e-10
      34.0000   2.51842e-10
      34.1000   2.08459e-10
      34.2000   1.78857e-10
      34.3000   1.49452e-10
      34.4000   1.24826e-10
      34.5000   1.06270e-10
      34.6000   8.78399e-11
      34.7000   7.40916e-11
      34.8000   6.25539e-11
      34.9000   5.10938e-11
      35.0000   4.35619e-11
      35.1000   3.64785e-11
      35.2000   2.97306e-11
      35.3000   2.53968e-11
      35.4000   2.10924e-11
      35.5000   1.72906e-11
      35.6000   1.46844e-11
      35.7000   1.20959e-11
      35.8000   9.97246e-12
      35.9000   8.42158e-12
      36.0000   6.88132e-12
      36.1000   5.70408e-12
      36.2000   4.79137e-12
      36.3000   3.88494e-12
      36.4000   3.23614e-12
      36.5000   2.70491e-12
      36.6000   2.17738e-12
      36.7000   1.82118e-12
      36.8000   1.51547e-12
      36.9000   1.21191e-12
      37.0000   1.01665e-12
      37.1000   8.42741e-13
      37.2000   6.70044e-13
      37.3000   5.62954e-13
      37.4000   4.65185e-13
      37.5000   3.68109e-13
      37.6000   3.09219e-13
      37.7000   2.54924e-13
      37.8000   2.01016e-13
      37.9000   1.68480e-13
      38.0000   1.38691e-13
      38.1000   1.09114e-13
      38.2000   9.10367e-14
      38.3000   7.48917e-14
      38.4000   5.88617e-14
      38.5000   4.87655e-14
      38.6000   4.01304e-14
      38.7000   3.15573e-14
      38.8000   2.58944e-14
      38.9000   2.13370e-14
      39.0000   1.68123e-14
      39.1000   1.36273e-14
      39.2000   1.12532e-14
      39.3000   8.89625e-15
      39.4000   7.09710e-15
      39.5000   5.86312e-15
      39.6000   4.63814e-15
      39.7000   3.62285e-15
      39.8000   3.00396e-15
      39.9000   2.38956e-15
      40.0000   1.82794e-15
      40.1000   1.52266e-15
      40.2000   1.21959e-15
      40.3000   9.18768e-16
      40.4000   7.63592e-16
      40.5000   6.16290e-16
      40.6000   4.70060e-16
      40.7000   3.78536e-16
      40.8000   3.08002e-16
      40.9000   2.37992e-16
      41.0000   1.85316e-16
      41.1000   1.52086e-16
      41.2000   1.19105e-16
      41.3000   8.95480e-17
      41.4000   7.41483e-17
      41.5000   5.88611e-17
      41.6000   4.36879e-17
      41.7000   3.56643e-17
      41.8000   2.86910e-17
      41.9000   2.17693e-17
      42.0000   1.69066e-17
      42.1000   1.37781e-17
      42.2000   1.06727e-17
      42.3000   7.89132e-18
      42.4000   6.51165e-18
      42.5000   5.14217e-18
      42.6000   3.78295e-18
      42.7000   3.02627e-18
      42.8000   2.43288e-18
      42.9000   1.84386e-18
      43.0000   1.38207e-18
      43.1000   1.12941e-18
      43.2000   8.78658e-19
      43.3000   6.29782e-19
      43.4000   6.30094e-19
      43.5000   7.03619e-19
      43.6000   8.29326e-19
      43.7000   9.17534e-19
      43.8000   8.58044e-19
      43.9000   6.86606e-19
      44.0000   4.86337e-19
      44.1000   3.83534e-19
      44.2000   3.04712e-19
      44.3000   2.27455e-19
      44.4000   1.70067e-19
      44.5000   1.38719e-19
      44.6000   1.07456e-19
      44.7000   7.62765e-20
      44.8000   6.15169e-20
      44.9000   4.91097e-20
      45.0000   3.67353e-20
      45.1000   2.65816e-20
      45.2000   2.17552e-20
      45.3000   1.69421e-20
      45.4000   1.21414e-20
      45.5000   9.35529e-21
      45.6000   7.52082e-21
      45.7000   5.69133e-21
      45.8000   3.90917e-21
      45.9000   3.22434e-21
      46.0000   2.54132e-21
      46.1000   1.86011e-21
      46.2000   1.33813e-21
      46.3000   1.08914e-21
      46.4000   8.40831e-22
      46.5000   5.93162e-22
      46.6000   4.51114e-22
      46.7000   3.61936e-22
      46.8000   2.72997e-22
      46.9000   1.84290e-22
      47.0000   1.49287e-22
      47.1000   1.18009e-22
      47.2000   8.68138e-23
      47.3000   5.92794e-23
      47.4000   4.85075e-23
      47.5000   3.77634e-23
      47.6000   2.70479e-23
      47.7000   1.90865e-23
      47.8000   1.54695e-23
      47.9000   1.18615e-23
      48.0000   8.26337e-24
      48.1000   6.03127e-24
      48.2000   4.84407e-24
      48.3000   3.65991e-24
      48.4000   2.47890e-24
      48.5000   1.87016e-24
      48.6000   1.48957e-24
      48.7000   1.10997e-24
      48.8000   7.31331e-25
      48.9000   5.68879e-25
      49.0000   4.49854e-25
      49.1000   3.31142e-25
      49.2000   2.12734e-25
      49.3000   1.72709e-25
      49.4000   1.39544e-25
      49.5000   1.06466e-25
      49.6000   7.34719e-26
      49.7000   6.61621e-26
      49.8000   5.95033e-26
      49.9000   5.28618e-26
      50.0000   4.62378e-26
      50.1000   4.05534e-26
      50.2000   3.27328e-26
      50.3000   2.64660e-26
      50.4000   2.28943e-26
      50.5000   2.06322e-26
      50.6000   1.84217e-26
      50.7000   1.42383e-26
      50.8000   1.18654e-26
      50.9000   6.49713e-27
      51.0000   4.35302e-27
      51.1000   3.51939e-27
      51.2000   3.52632e-27
      51.3000   3.15828e-27
      51.4000   1.94766e-27
      51.5000   1.17448e-27
      51.6000   8.28300e-28
      51.7000   5.58560e-28
      51.8000   4.22459e-28
      51.9000   3.51540e-28
      52.0000   2.78532e-28
      52.1000   1.92523e-28
      52.2000   1.47286e-28
      52.3000   9.70131e-29
      52.4000   6.33052e-29
      52.5000   5.00249e-29
      52.6000   4.44705e-29
      52.7000   3.79387e-29
      52.8000   2.57879e-29
      52.9000   1.47502e-29
      53.0000   9.86364e-30
      53.1000   6.50385e-30
      53.2000   4.36390e-30
      53.3000   2.89619e-30
      53.4000   1.89773e-30
      53.5000   1.08321e-30
      53.6000   5.47490e-31
      53.7000   3.19834e-31
      53.8000   2.38870e-31
      53.9000   1.64045e-31
      54.0000   1.10298e-31
      54.1000   7.17691e-32
      54.2000   5.08569e-32
      54.3000   3.06326e-32
      54.4000   1.29735e-32
      54.5000   7.08387e-33
      54.6000   5.07426e-33
      54.7000   3.85049e-33
      54.8000   2.70525e-33
      54.9000   1.83414e-33
      55.0000   1.33475e-33
      55.1000   9.65246e-34
      55.2000   6.92799e-34
      55.3000   6.40230e-34
      55.4000   5.70742e-34
      55.5000   4.10041e-34
      55.6000   2.62884e-34
      55.7000   1.89171e-34
      55.8000   1.29173e-34
      55.9000   9.05628e-35
      56.0000   6.62517e-35
      56.1000   4.57849e-35
      56.2000   4.24230e-35
      56.3000   3.45959e-35
      56.4000   2.50565e-35
      56.5000   1.72694e-35
      56.6000   1.18985e-35
      56.7000   8.66923e-36
      56.8000   6.36012e-36
      56.9000   4.50660e-36
      57.0000   3.00924e-36
      57.1000   2.00961e-36
      57.2000   1.38403e-36
      57.3000   9.79670e-37
      57.4000   6.99639e-37
      57.5000   4.96390e-37
      57.6000   3.22784e-37
      57.7000   2.24348e-37
      57.8000   2.03315e-37
      57.9000   1.52233e-37
      58.0000   1.08460e-37
      58.1000   7.15338e-38
      58.2000   4.11760e-38
      58.3000   2.70856e-38
      58.4000   2.04905e-38
      58.5000   1.63377e-38
      58.6000   1.11510e-38
      58.7000   7.53084e-39
      58.8000   5.05513e-39
      58.9000   3.40528e-39
      59.0000   2.47423e-39
      59.1000   1.83596e-39
      59.2000   1.35802e-39
      59.3000   1.00104e-39
      59.4000   7.35190e-40
      59.5000   5.17811e-40
      59.6000   3.42519e-40
      59.7000   2.62287e-40
      59.8000   1.82305e-40
      59.9000   1.08354e-40
      60.0000   7.97941e-41
      60.1000   5.88643e-41
      60.2000   4.32847e-41
      60.3000   3.17198e-41
      60.4000   2.31761e-41
      60.5000   1.70804e-41
      60.6000   1.26930e-41
      60.7000   9.99406e-42
      60.8000   8.25225e-42
      60.9000   6.79630e-42
      61.0000   5.61640e-42
      61.1000   4.65231e-42
      61.2000   3.86899e-42
      61.3000   3.20757e-42
      61.4000   2.65546e-42
      61.5000   2.20705e-42
      61.6000   1.75723e-42
      61.7000   1.38028e-42
      61.8000   1.08601e-42
      61.9000   8.58996e-43
      62.0000   6.58610e-43
      62.1000   4.76441e-43
      62.2000   3.34910e-43
      62.3000   2.42425e-43
      62.4000   2.01787e-43
      62.5000   1.72360e-43
      62.6000   1.49939e-43
      62.7000   1.27518e-43
      62.8000   1.12104e-43
      62.9000   8.26766e-44
      63.0000   5.74532e-44
      63.1000   3.78351e-44
      63.2000   3.22299e-44
      63.3000   2.52234e-44
      63.4000   2.24208e-44
      63.5000   1.54143e-44
      63.6000   1.26117e-44
      63.7000   9.80909e-45
      63.8000   9.80909e-45
      63.9000   7.00649e-45
      64.0000   2.80260e-45
      64.1000   2.80260e-45
      64.2000   2.80260e-45
      64.3000   2.80260e-45
      64.4000       0.00000
      64.5000       0.00000
      64.6000       0.00000
      64.7000       0.00000
      64.8000       0.00000
      64.9000       0.00000
      65.0000       0.00000
      65.1000       0.00000
      65.2000       0.00000
      65.3000       0.00000
      65.4000       0.00000
      65.5000       0.00000
      65.6000       0.00000
      65.7000       0.00000
      65.8000       0.00000
      65.9000       0.00000
      66.0000       0.00000
      66.1000       0.00000
      66.2000       0.00000
      66.3000       0.00000
      66.4000       0.00000
      66.5000       0.00000
      66.6000       0.00000
      66.7000       0.00000
      66.8000       0.00000
      66.9000       0.00000
      67.0000       0.00000
      67.1000       0.00000
      67.2000       0.00000
      67.3000       0.00000
      67.4000       0.00000
      67.5000       0.00000
      67.6000       0.00000
      67.7000       0.00000
      67.8000       0.00000
      67.9000       0.00000
      68.0000       0.00000
      68.1000       0.00000
      68.2000       0.00000
      68.3000       0.00000
      68.4000       0.00000
      68.5000       0.00000
      68.6000       0.00000
      68.7000       0.00000
      68.8000       0.00000
      68.9000       0.00000
      69.0000       0.00000
      69.1000       0.00000
      69.2000       0.00000
      69.3000       0.00000
      69.4000       0.00000
      69.5000       0.00000
      69.6000       0.00000
      69.7000       0.00000
      69.8000       0.00000
      69.9000       0.00000
      70.0000       0.00000
      70.1000       0.00000
      70.2000       0.00000
      70.3000       0.00000
      70.4000       0.00000
      70.5000       0.00000
      70.6000       0.00000
      70.7000       0.00000
      70.8000       0.00000
      70.9000       0.00000
      71.0000       0.00000
      71.1000       0.00000
      71.2000       0.00000
      71.3000       0.00000
      71.4000       0.00000
      71.5000       0.00000
      71.6000       0.00000
      71.7000       0.00000
      71.8000       0.00000
      71.9000       0.00000
      72.0000       0.00000
