Filter Al-thick
observation_date 22-Sept-2015 22:40:45
wavelength effective area 
      1.00000   2.52796e-10
      1.10000   6.99234e-10
      1.20000   1.75057e-09
      1.30000   4.00503e-09
      1.40000   8.63392e-09
      1.50000   1.73697e-08
      1.60000   3.28993e-08
      1.70000   5.92541e-08
      1.80000   1.01465e-07
      1.90000   1.66201e-07
      2.00000   2.60869e-07
      2.10000   3.93900e-07
      2.20000   5.74587e-07
      2.30000   8.08522e-07
      2.40000   1.09915e-06
      2.50000   1.43842e-06
      2.60000   1.85779e-06
      2.70000   2.31653e-06
      2.80000   2.80077e-06
      2.90000   3.30675e-06
      3.00000   3.79690e-06
      3.10000   4.24888e-06
      3.20000   4.64097e-06
      3.30000   4.95072e-06
      3.40000   5.15684e-06
      3.50000   5.24917e-06
      3.60000   5.23909e-06
      3.70000   5.10750e-06
      3.80000   4.88395e-06
      3.90000   4.57865e-06
      4.00000   4.20588e-06
      4.10000   3.78967e-06
      4.20000   3.35281e-06
      4.30000   2.91378e-06
      4.40000   2.48830e-06
      4.50000   2.08792e-06
      4.60000   1.72034e-06
      4.70000   1.39659e-06
      4.80000   1.11525e-06
      4.90000   8.66166e-07
      5.00000   6.79922e-07
      5.10000   5.18520e-07
      5.20000   3.90806e-07
      5.30000   2.87565e-07
      5.40000   2.08207e-07
      5.50000   1.48948e-07
      5.60000   1.01645e-07
      5.70000   7.18975e-08
      5.80000   4.51527e-08
      5.90000   3.65638e-08
      6.00000   2.57218e-08
      6.10000   1.69662e-08
      6.20000   1.07906e-08
      6.30000   6.46809e-09
      6.40000   3.65045e-09
      6.50000   1.94652e-09
      6.60000   9.74329e-10
      6.70000   4.69880e-10
      6.80000   2.19531e-10
      6.90000   1.32214e-10
      7.00000   6.59944e-11
      7.10000   3.14317e-11
      7.20000   1.44975e-11
      7.30000   6.59246e-12
      7.40000   3.05228e-12
      7.50000   1.35379e-12
      7.60000   5.73275e-13
      7.70000   2.50274e-13
      7.80000   1.03196e-13
      7.90000   4.15863e-14
      8.00000     0.0717990
      8.10000     0.0718503
      8.20000     0.0665728
      8.30000     0.0612638
      8.40000     0.0563269
      8.50000     0.0516365
      8.60000     0.0472250
      8.70000     0.0430457
      8.80000     0.0391392
      8.90000     0.0354603
      9.00000     0.0320373
      9.10000     0.0288628
      9.20000     0.0259087
      9.30000     0.0232161
      9.40000     0.0207346
      9.50000     0.0184526
      9.60000     0.0163996
      9.70000     0.0145272
      9.80000     0.0128177
      9.90000     0.0112797
      10.0000    0.00989699
      10.1000    0.00865039
      10.2000    0.00753131
      10.3000    0.00654261
      10.4000    0.00567221
      10.5000    0.00490121
      10.6000    0.00422091
      10.7000    0.00362286
      10.8000    0.00310173
      10.9000    0.00265193
      11.0000    0.00226013
      11.1000    0.00192010
      11.2000    0.00162601
      11.3000    0.00137264
      11.4000    0.00115509
      11.5000   0.000968943
      11.6000   0.000810239
      11.7000   0.000676753
      11.8000   0.000563676
      11.9000   0.000469045
      12.0000   0.000389297
      12.1000   0.000323684
      12.2000   0.000273489
      12.3000   0.000227415
      12.4000   0.000186852
      12.5000   0.000152925
      12.6000   0.000124723
      12.7000   0.000101376
      12.8000   8.21344e-05
      12.9000   6.63433e-05
      13.0000   5.34233e-05
      13.1000   4.28824e-05
      13.2000   3.43100e-05
      13.3000   2.73601e-05
      13.4000   2.17447e-05
      13.5000   1.72316e-05
      13.6000   1.36738e-05
      13.7000   1.08171e-05
      13.8000   8.52932e-06
      13.9000   6.70257e-06
      14.0000   5.24810e-06
      14.1000   4.09346e-06
      14.2000   3.17983e-06
      14.3000   2.45957e-06
      14.4000   1.89408e-06
      14.5000   1.45807e-06
      14.6000   1.12558e-06
      14.7000   8.64815e-07
      14.8000   6.61071e-07
      14.9000   5.02558e-07
      15.0000   3.79834e-07
      15.1000   2.85320e-07
      15.2000   2.16320e-07
      15.3000   1.63425e-07
      15.4000   1.22590e-07
      15.5000   9.12767e-08
      15.6000   6.74393e-08
      15.7000   5.00206e-08
      15.8000   3.73306e-08
      15.9000   2.76113e-08
      16.0000   2.02392e-08
      16.1000   1.47029e-08
      16.2000   1.08498e-08
      16.3000   7.98541e-09
      16.4000   5.80739e-09
      16.5000   4.17380e-09
      16.6000   3.02010e-09
      16.7000   2.20405e-09
      16.8000   1.58382e-09
      16.9000   1.12134e-09
      17.0000   8.02055e-10
      17.1000   5.78098e-10
      17.2000   4.08793e-10
      17.3000   2.84022e-10
      17.4000   2.03825e-10
      17.5000   1.45380e-10
      17.6000   1.01944e-10
      17.7000   7.17025e-11
      17.8000   5.20755e-11
      17.9000   3.69603e-11
      18.0000   2.56404e-11
      18.1000   1.84804e-11
      18.2000   1.29846e-11
      18.3000   8.83334e-12
      18.4000   6.14250e-12
      18.5000   4.21103e-12
      18.6000   2.76709e-12
      18.7000   1.84922e-12
      18.8000   1.23327e-12
      18.9000   7.86103e-13
      19.0000   5.19620e-13
      19.1000   3.42505e-13
      19.2000   2.15049e-13
      19.3000   1.42814e-13
      19.4000   9.31628e-14
      19.5000   5.78043e-14
      19.6000   3.90179e-14
      19.7000   2.51392e-14
      19.8000   1.56008e-14
      19.9000   1.05910e-14
      20.0000   6.68260e-15
      20.1000   4.27939e-15
      20.2000   2.80698e-15
      20.3000   1.71313e-15
      20.4000   1.13276e-15
      20.5000   7.12368e-16
      20.6000   4.34231e-16
      20.7000   2.86302e-16
      20.8000   1.71651e-16
      20.9000   1.10536e-16
      21.0000   6.84677e-17
      21.1000   4.06325e-17
      21.2000   2.64724e-17
      21.3000   1.53927e-17
      21.4000   9.87958e-18
      21.5000   5.92108e-18
      21.6000   3.53724e-18
      21.7000   2.21630e-18
      21.8000   1.23034e-18
      21.9000   8.07666e-19
      22.0000   4.59568e-19
      22.1000   2.85717e-19
      22.2000   1.67397e-19
      22.3000   9.72330e-20
      22.4000   5.87901e-20
      22.5000   3.04867e-20
      22.6000   1.84935e-20
      22.7000   8.62085e-21
      22.8000   6.47740e-21
      22.9000   4.76159e-21
      23.0000   3.69115e-21
      23.1000   2.67139e-21
      23.2000   1.69964e-21
      23.3000   1.06852e-21
      23.4000   6.07080e-22
      23.5000   3.76424e-22
      23.6000   2.02163e-22
      23.7000   1.29570e-22
      23.8000   6.66239e-23
      23.9000   4.35162e-23
      24.0000   2.24159e-23
      24.1000   1.43400e-23
      24.2000   7.38350e-24
      24.3000   4.63963e-24
      24.4000   2.39280e-24
      24.5000   1.48200e-24
      24.6000   7.65694e-25
      24.7000   4.68578e-25
      24.8000   2.41804e-25
      24.9000   1.47226e-25
      25.0000   7.60354e-26
      25.1000   4.60621e-26
      25.2000   2.35616e-26
      25.3000   1.42900e-26
      25.4000   7.23292e-27
      25.5000   4.39853e-27
      25.6000   2.18288e-27
      25.7000   1.33700e-27
      25.8000   6.48072e-28
      25.9000   4.01078e-28
      26.0000   1.88838e-28
      26.1000   1.18481e-28
      26.2000   5.39684e-29
      26.3000   3.44180e-29
      26.4000   1.51084e-29
      26.5000   9.81381e-30
      26.6000   4.54582e-30
      26.7000   2.74165e-30
      26.8000   1.35288e-30
      26.9000   7.49580e-31
      27.0000   3.93089e-31
      27.1000   2.00221e-31
      27.2000   1.11133e-31
      27.3000   5.21653e-32
      27.4000   3.06154e-32
      27.5000   1.33743e-32
      27.6000   8.21924e-33
      27.7000   3.31227e-33
      27.8000   2.12494e-33
      27.9000   9.43521e-34
      28.0000   5.30432e-34
      28.1000   2.67791e-34
      28.2000   1.28877e-34
      28.3000   7.23913e-35
      28.4000   3.12285e-35
      28.5000   1.89475e-35
      28.6000   7.39936e-36
      28.7000   4.83062e-36
      28.8000   2.27490e-36
      28.9000   1.25802e-36
      29.0000   6.80995e-37
      29.1000   3.15451e-37
      29.2000   1.88689e-37
      29.3000   7.62618e-38
      29.4000   4.91682e-38
      29.5000   2.22144e-38
      29.6000   1.21540e-38
      29.7000   6.55455e-39
      29.8000   2.86556e-39
      29.9000   1.73531e-39
      30.0000   6.46593e-40
      30.1000   4.25039e-40
      30.2000   2.04618e-40
      30.3000   9.81778e-41
      30.4000   5.68829e-41
      30.5000   2.27193e-41
      30.6000   1.44726e-41
      30.7000   6.27221e-42
      30.8000   3.23980e-42
      30.9000   1.77685e-42
      31.0000   6.86636e-43
      31.1000   4.31600e-43
      31.2000   1.75162e-43
      31.3000   9.52883e-44
      31.4000   4.76441e-44
      31.5000   1.96182e-44
      31.6000   1.26117e-44
      31.7000   2.80260e-45
      31.8000   2.80260e-45
      31.9000   2.80260e-45
      32.0000       0.00000
      32.1000       0.00000
      32.2000       0.00000
      32.3000       0.00000
      32.4000       0.00000
      32.5000       0.00000
      32.6000       0.00000
      32.7000       0.00000
      32.8000       0.00000
      32.9000       0.00000
      33.0000       0.00000
      33.1000       0.00000
      33.2000       0.00000
      33.3000       0.00000
      33.4000       0.00000
      33.5000       0.00000
      33.6000       0.00000
      33.7000       0.00000
      33.8000       0.00000
      33.9000       0.00000
      34.0000       0.00000
      34.1000       0.00000
      34.2000       0.00000
      34.3000       0.00000
      34.4000       0.00000
      34.5000       0.00000
      34.6000       0.00000
      34.7000       0.00000
      34.8000       0.00000
      34.9000       0.00000
      35.0000       0.00000
      35.1000       0.00000
      35.2000       0.00000
      35.3000       0.00000
      35.4000       0.00000
      35.5000       0.00000
      35.6000       0.00000
      35.7000       0.00000
      35.8000       0.00000
      35.9000       0.00000
      36.0000       0.00000
      36.1000       0.00000
      36.2000       0.00000
      36.3000       0.00000
      36.4000       0.00000
      36.5000       0.00000
      36.6000       0.00000
      36.7000       0.00000
      36.8000       0.00000
      36.9000       0.00000
      37.0000       0.00000
      37.1000       0.00000
      37.2000       0.00000
      37.3000       0.00000
      37.4000       0.00000
      37.5000       0.00000
      37.6000       0.00000
      37.7000       0.00000
      37.8000       0.00000
      37.9000       0.00000
      38.0000       0.00000
      38.1000       0.00000
      38.2000       0.00000
      38.3000       0.00000
      38.4000       0.00000
      38.5000       0.00000
      38.6000       0.00000
      38.7000       0.00000
      38.8000       0.00000
      38.9000       0.00000
      39.0000       0.00000
      39.1000       0.00000
      39.2000       0.00000
      39.3000       0.00000
      39.4000       0.00000
      39.5000       0.00000
      39.6000       0.00000
      39.7000       0.00000
      39.8000       0.00000
      39.9000       0.00000
      40.0000       0.00000
      40.1000       0.00000
      40.2000       0.00000
      40.3000       0.00000
      40.4000       0.00000
      40.5000       0.00000
      40.6000       0.00000
      40.7000       0.00000
      40.8000       0.00000
      40.9000       0.00000
      41.0000       0.00000
      41.1000       0.00000
      41.2000       0.00000
      41.3000       0.00000
      41.4000       0.00000
      41.5000       0.00000
      41.6000       0.00000
      41.7000       0.00000
      41.8000       0.00000
      41.9000       0.00000
      42.0000       0.00000
      42.1000       0.00000
      42.2000       0.00000
      42.3000       0.00000
      42.4000       0.00000
      42.5000       0.00000
      42.6000       0.00000
      42.7000       0.00000
      42.8000       0.00000
      42.9000       0.00000
      43.0000       0.00000
      43.1000       0.00000
      43.2000       0.00000
      43.3000       0.00000
      43.4000       0.00000
      43.5000       0.00000
      43.6000       0.00000
      43.7000       0.00000
      43.8000       0.00000
      43.9000       0.00000
      44.0000       0.00000
      44.1000       0.00000
      44.2000       0.00000
      44.3000       0.00000
      44.4000       0.00000
      44.5000       0.00000
      44.6000       0.00000
      44.7000       0.00000
      44.8000       0.00000
      44.9000       0.00000
      45.0000       0.00000
      45.1000       0.00000
      45.2000       0.00000
      45.3000       0.00000
      45.4000       0.00000
      45.5000       0.00000
      45.6000       0.00000
      45.7000       0.00000
      45.8000       0.00000
      45.9000       0.00000
      46.0000       0.00000
      46.1000       0.00000
      46.2000       0.00000
      46.3000       0.00000
      46.4000       0.00000
      46.5000       0.00000
      46.6000       0.00000
      46.7000       0.00000
      46.8000       0.00000
      46.9000       0.00000
      47.0000       0.00000
      47.1000       0.00000
      47.2000       0.00000
      47.3000       0.00000
      47.4000       0.00000
      47.5000       0.00000
      47.6000       0.00000
      47.7000       0.00000
      47.8000       0.00000
      47.9000       0.00000
      48.0000       0.00000
      48.1000       0.00000
      48.2000       0.00000
      48.3000       0.00000
      48.4000       0.00000
      48.5000       0.00000
      48.6000       0.00000
      48.7000       0.00000
      48.8000       0.00000
      48.9000       0.00000
      49.0000       0.00000
      49.1000       0.00000
      49.2000       0.00000
      49.3000       0.00000
      49.4000       0.00000
      49.5000       0.00000
      49.6000       0.00000
      49.7000       0.00000
      49.8000       0.00000
      49.9000       0.00000
      50.0000       0.00000
      50.1000       0.00000
      50.2000       0.00000
      50.3000       0.00000
      50.4000       0.00000
      50.5000       0.00000
      50.6000       0.00000
      50.7000       0.00000
      50.8000       0.00000
      50.9000       0.00000
      51.0000       0.00000
      51.1000       0.00000
      51.2000       0.00000
      51.3000       0.00000
      51.4000       0.00000
      51.5000       0.00000
      51.6000       0.00000
      51.7000       0.00000
      51.8000       0.00000
      51.9000       0.00000
      52.0000       0.00000
      52.1000       0.00000
      52.2000       0.00000
      52.3000       0.00000
      52.4000       0.00000
      52.5000       0.00000
      52.6000       0.00000
      52.7000       0.00000
      52.8000       0.00000
      52.9000       0.00000
      53.0000       0.00000
      53.1000       0.00000
      53.2000       0.00000
      53.3000       0.00000
      53.4000       0.00000
      53.5000       0.00000
      53.6000       0.00000
      53.7000       0.00000
      53.8000       0.00000
      53.9000       0.00000
      54.0000       0.00000
      54.1000       0.00000
      54.2000       0.00000
      54.3000       0.00000
      54.4000       0.00000
      54.5000       0.00000
      54.6000       0.00000
      54.7000       0.00000
      54.8000       0.00000
      54.9000       0.00000
      55.0000       0.00000
      55.1000       0.00000
      55.2000       0.00000
      55.3000       0.00000
      55.4000       0.00000
      55.5000       0.00000
      55.6000       0.00000
      55.7000       0.00000
      55.8000       0.00000
      55.9000       0.00000
      56.0000       0.00000
      56.1000       0.00000
      56.2000       0.00000
      56.3000       0.00000
      56.4000       0.00000
      56.5000       0.00000
      56.6000       0.00000
      56.7000       0.00000
      56.8000       0.00000
      56.9000       0.00000
      57.0000       0.00000
      57.1000       0.00000
      57.2000       0.00000
      57.3000       0.00000
      57.4000       0.00000
      57.5000       0.00000
      57.6000       0.00000
      57.7000       0.00000
      57.8000       0.00000
      57.9000       0.00000
      58.0000       0.00000
      58.1000       0.00000
      58.2000       0.00000
      58.3000       0.00000
      58.4000       0.00000
      58.5000       0.00000
      58.6000       0.00000
      58.7000       0.00000
      58.8000       0.00000
      58.9000       0.00000
      59.0000       0.00000
      59.1000       0.00000
      59.2000       0.00000
      59.3000       0.00000
      59.4000       0.00000
      59.5000       0.00000
      59.6000       0.00000
      59.7000       0.00000
      59.8000       0.00000
      59.9000       0.00000
      60.0000       0.00000
      60.1000       0.00000
      60.2000       0.00000
      60.3000       0.00000
      60.4000       0.00000
      60.5000       0.00000
      60.6000       0.00000
      60.7000       0.00000
      60.8000       0.00000
      60.9000       0.00000
      61.0000       0.00000
      61.1000       0.00000
      61.2000       0.00000
      61.3000       0.00000
      61.4000       0.00000
      61.5000       0.00000
      61.6000       0.00000
      61.7000       0.00000
      61.8000       0.00000
      61.9000       0.00000
      62.0000       0.00000
      62.1000       0.00000
      62.2000       0.00000
      62.3000       0.00000
      62.4000       0.00000
      62.5000       0.00000
      62.6000       0.00000
      62.7000       0.00000
      62.8000       0.00000
      62.9000       0.00000
      63.0000       0.00000
      63.1000       0.00000
      63.2000       0.00000
      63.3000       0.00000
      63.4000       0.00000
      63.5000       0.00000
      63.6000       0.00000
      63.7000       0.00000
      63.8000       0.00000
      63.9000       0.00000
      64.0000       0.00000
      64.1000       0.00000
      64.2000       0.00000
      64.3000       0.00000
      64.4000       0.00000
      64.5000       0.00000
      64.6000       0.00000
      64.7000       0.00000
      64.8000       0.00000
      64.9000       0.00000
      65.0000       0.00000
      65.1000       0.00000
      65.2000       0.00000
      65.3000       0.00000
      65.4000       0.00000
      65.5000       0.00000
      65.6000       0.00000
      65.7000       0.00000
      65.8000       0.00000
      65.9000       0.00000
      66.0000       0.00000
      66.1000       0.00000
      66.2000       0.00000
      66.3000       0.00000
      66.4000       0.00000
      66.5000       0.00000
      66.6000       0.00000
      66.7000       0.00000
      66.8000       0.00000
      66.9000       0.00000
      67.0000       0.00000
      67.1000       0.00000
      67.2000       0.00000
      67.3000       0.00000
      67.4000       0.00000
      67.5000       0.00000
      67.6000       0.00000
      67.7000       0.00000
      67.8000       0.00000
      67.9000       0.00000
      68.0000       0.00000
      68.1000       0.00000
      68.2000       0.00000
      68.3000       0.00000
      68.4000       0.00000
      68.5000       0.00000
      68.6000       0.00000
      68.7000       0.00000
      68.8000       0.00000
      68.9000       0.00000
      69.0000       0.00000
      69.1000       0.00000
      69.2000       0.00000
      69.3000       0.00000
      69.4000       0.00000
      69.5000       0.00000
      69.6000       0.00000
      69.7000       0.00000
      69.8000       0.00000
      69.9000       0.00000
      70.0000       0.00000
      70.1000       0.00000
      70.2000       0.00000
      70.3000       0.00000
      70.4000       0.00000
      70.5000       0.00000
      70.6000       0.00000
      70.7000       0.00000
      70.8000       0.00000
      70.9000       0.00000
      71.0000       0.00000
      71.1000       0.00000
      71.2000       0.00000
      71.3000       0.00000
      71.4000       0.00000
      71.5000       0.00000
      71.6000       0.00000
      71.7000       0.00000
      71.8000       0.00000
      71.9000       0.00000
      72.0000       0.00000
