Filter Al-thick
observation_date 22-Sept-2023 22:45:45
wavelength effective area 
      1.00000   2.52796e-10
      1.10000   6.99231e-10
      1.20000   1.75056e-09
      1.30000   4.00500e-09
      1.40000   8.63385e-09
      1.50000   1.73695e-08
      1.60000   3.28989e-08
      1.70000   5.92531e-08
      1.80000   1.01463e-07
      1.90000   1.66197e-07
      2.00000   2.60862e-07
      2.10000   3.93888e-07
      2.20000   5.74567e-07
      2.30000   8.08489e-07
      2.40000   1.09910e-06
      2.50000   1.43834e-06
      2.60000   1.85768e-06
      2.70000   2.31637e-06
      2.80000   2.80057e-06
      2.90000   3.30647e-06
      3.00000   3.79656e-06
      3.10000   4.24845e-06
      3.20000   4.64046e-06
      3.30000   4.95012e-06
      3.40000   5.15615e-06
      3.50000   5.24840e-06
      3.60000   5.23826e-06
      3.70000   5.10662e-06
      3.80000   4.88304e-06
      3.90000   4.57773e-06
      4.00000   4.20496e-06
      4.10000   3.78878e-06
      4.20000   3.35197e-06
      4.30000   2.91299e-06
      4.40000   2.48758e-06
      4.50000   2.08728e-06
      4.60000   1.71978e-06
      4.70000   1.39610e-06
      4.80000   1.11483e-06
      4.90000   8.65823e-07
      5.00000   6.79636e-07
      5.10000   5.18289e-07
      5.20000   3.90621e-07
      5.30000   2.87421e-07
      5.40000   2.08097e-07
      5.50000   1.48866e-07
      5.60000   1.01586e-07
      5.70000   7.18532e-08
      5.80000   4.51234e-08
      5.90000   3.65389e-08
      6.00000   2.57034e-08
      6.10000   1.69534e-08
      6.20000   1.07821e-08
      6.30000   6.46276e-09
      6.40000   3.64730e-09
      6.50000   1.94476e-09
      6.60000   9.73412e-10
      6.70000   4.69418e-10
      6.80000   2.19306e-10
      6.90000   1.32072e-10
      7.00000   6.59207e-11
      7.10000   3.13952e-11
      7.20000   1.44800e-11
      7.30000   6.58416e-12
      7.40000   3.04828e-12
      7.50000   1.35195e-12
      7.60000   5.72465e-13
      7.70000   2.49907e-13
      7.80000   1.03039e-13
      7.90000   4.15207e-14
      8.00000     0.0716816
      8.10000     0.0717286
      8.20000     0.0664560
      8.30000     0.0611525
      8.40000     0.0562210
      8.50000     0.0515362
      8.60000     0.0471302
      8.70000     0.0429564
      8.80000     0.0390553
      8.90000     0.0353818
      9.00000     0.0319642
      9.10000     0.0287949
      9.20000     0.0258458
      9.30000     0.0231579
      9.40000     0.0206811
      9.50000     0.0184036
      9.60000     0.0163547
      9.70000     0.0144862
      9.80000     0.0127805
      9.90000     0.0112460
      10.0000    0.00986661
      10.1000    0.00862309
      10.2000    0.00750688
      10.3000    0.00652081
      10.4000    0.00565280
      10.5000    0.00488399
      10.6000    0.00420569
      10.7000    0.00360944
      10.8000    0.00308995
      10.9000    0.00264160
      11.0000    0.00225110
      11.1000    0.00191223
      11.2000    0.00161918
      11.3000    0.00136673
      11.4000    0.00115000
      11.5000   0.000964563
      11.6000   0.000806488
      11.7000   0.000673545
      11.8000   0.000560940
      11.9000   0.000466716
      12.0000   0.000387319
      12.1000   0.000322002
      12.2000   0.000272036
      12.3000   0.000226179
      12.4000   0.000185814
      12.5000   0.000152057
      12.6000   0.000123999
      12.7000   0.000100775
      12.8000   8.16368e-05
      12.9000   6.59328e-05
      13.0000   5.30857e-05
      13.1000   4.26057e-05
      13.2000   3.40840e-05
      13.3000   2.71762e-05
      13.4000   2.15955e-05
      13.5000   1.71110e-05
      13.6000   1.35762e-05
      13.7000   1.07384e-05
      13.8000   8.46603e-06
      13.9000   6.65188e-06
      14.0000   5.20764e-06
      14.1000   4.06130e-06
      14.2000   3.15437e-06
      14.3000   2.43951e-06
      14.4000   1.87834e-06
      14.5000   1.44573e-06
      14.6000   1.11588e-06
      14.7000   8.57223e-07
      14.8000   6.55162e-07
      14.9000   4.97983e-07
      15.0000   3.76314e-07
      15.1000   2.82628e-07
      15.2000   2.14243e-07
      15.3000   1.61828e-07
      15.4000   1.21371e-07
      15.5000   9.03530e-08
      15.6000   6.67448e-08
      15.7000   4.94966e-08
      15.8000   3.69329e-08
      15.9000   2.73121e-08
      16.0000   2.00162e-08
      16.1000   1.45382e-08
      16.2000   1.07263e-08
      16.3000   7.89300e-09
      16.4000   5.73908e-09
      16.5000   4.12391e-09
      16.6000   2.98342e-09
      16.7000   2.17685e-09
      16.8000   1.56397e-09
      16.9000   1.10706e-09
      17.0000   7.91680e-10
      17.1000   5.70504e-10
      17.2000   4.03339e-10
      17.3000   2.80174e-10
      17.4000   2.01023e-10
      17.5000   1.43352e-10
      17.6000   1.00501e-10
      17.7000   7.06741e-11
      17.8000   5.13184e-11
      17.9000   3.64158e-11
      18.0000   2.52577e-11
      18.1000   1.82010e-11
      18.2000   1.27857e-11
      18.3000   8.69618e-12
      18.4000   6.04585e-12
      18.5000   4.14388e-12
      18.6000   2.72237e-12
      18.7000   1.81892e-12
      18.8000   1.21279e-12
      18.9000   7.72873e-13
      19.0000   5.10756e-13
      19.1000   3.36585e-13
      19.2000   2.11283e-13
      19.3000   1.40280e-13
      19.4000   9.14882e-14
      19.5000   5.67518e-14
      19.6000   3.82984e-14
      19.7000   2.46697e-14
      19.8000   1.53057e-14
      19.9000   1.03882e-14
      20.0000   6.55305e-15
      20.1000   4.19540e-15
      20.2000   2.75121e-15
      20.3000   1.67868e-15
      20.4000   1.10970e-15
      20.5000   6.97691e-16
      20.6000   4.25176e-16
      20.7000   2.80260e-16
      20.8000   1.67985e-16
      20.9000   1.08147e-16
      21.0000   6.69707e-17
      21.1000   3.97337e-17
      21.2000   2.58799e-17
      21.3000   1.50442e-17
      21.4000   9.65330e-18
      21.5000   5.78389e-18
      21.6000   3.45435e-18
      21.7000   2.16376e-18
      21.8000   1.20085e-18
      21.9000   7.88081e-19
      22.0000   4.48298e-19
      22.1000   2.78631e-19
      22.2000   1.63199e-19
      22.3000   9.47673e-20
      22.4000   5.72825e-20
      22.5000   2.96963e-20
      22.6000   1.80087e-20
      22.7000   8.42292e-21
      22.8000   6.34607e-21
      22.9000   4.65720e-21
      23.0000   3.61697e-21
      23.1000   2.61701e-21
      23.2000   1.66543e-21
      23.3000   1.04679e-21
      23.4000   5.94598e-22
      23.5000   3.68601e-22
      23.6000   1.97917e-22
      23.7000   1.26819e-22
      23.8000   6.51947e-23
      23.9000   4.25728e-23
      24.0000   2.19248e-23
      24.1000   1.40226e-23
      24.2000   7.21836e-24
      24.3000   4.53480e-24
      24.4000   2.33817e-24
      24.5000   1.44782e-24
      24.6000   7.47852e-25
      24.7000   4.57549e-25
      24.8000   2.36055e-25
      24.9000   1.43691e-25
      25.0000   7.41908e-26
      25.1000   4.49336e-26
      25.2000   2.29785e-26
      25.3000   1.39328e-26
      25.4000   7.05036e-27
      25.5000   4.28643e-27
      25.6000   2.12671e-27
      25.7000   1.30226e-27
      25.8000   6.31072e-28
      25.9000   3.90458e-28
      26.0000   1.83790e-28
      26.1000   1.15284e-28
      26.2000   5.24984e-29
      26.3000   3.34718e-29
      26.4000   1.46891e-29
      26.5000   9.53898e-30
      26.6000   4.41732e-30
      26.7000   2.66345e-30
      26.8000   1.31394e-30
      26.9000   7.27804e-31
      27.0000   3.81565e-31
      27.1000   1.94299e-31
      27.2000   1.07816e-31
      27.3000   5.05942e-32
      27.4000   2.96851e-32
      27.5000   1.29642e-32
      27.6000   7.96500e-33
      27.7000   3.20890e-33
      27.8000   2.05805e-33
      27.9000   9.13555e-34
      28.0000   5.13439e-34
      28.1000   2.59136e-34
      28.2000   1.24676e-34
      28.3000   7.00110e-35
      28.4000   3.01928e-35
      28.5000   1.83137e-35
      28.6000   7.14972e-36
      28.7000   4.66626e-36
      28.8000   2.19684e-36
      28.9000   1.21448e-36
      29.0000   6.57229e-37
      29.1000   3.04350e-37
      29.2000   1.81993e-37
      29.3000   7.35329e-38
      29.4000   4.73941e-38
      29.5000   2.14062e-38
      29.6000   1.17082e-38
      29.7000   6.31213e-39
      29.8000   2.75871e-39
      29.9000   1.67007e-39
      30.0000   6.22088e-40
      30.1000   4.08798e-40
      30.2000   1.96740e-40
      30.3000   9.43662e-41
      30.4000   5.46562e-41
      30.5000   2.18210e-41
      30.6000   1.38953e-41
      30.7000   6.01998e-42
      30.8000   3.10808e-42
      30.9000   1.70258e-42
      31.0000   6.58610e-43
      31.1000   4.11982e-43
      31.2000   1.66755e-43
      31.3000   9.24857e-44
      31.4000   4.48416e-44
      31.5000   1.96182e-44
      31.6000   9.80909e-45
      31.7000   2.80260e-45
      31.8000   2.80260e-45
      31.9000   2.80260e-45
      32.0000       0.00000
      32.1000       0.00000
      32.2000       0.00000
      32.3000       0.00000
      32.4000       0.00000
      32.5000       0.00000
      32.6000       0.00000
      32.7000       0.00000
      32.8000       0.00000
      32.9000       0.00000
      33.0000       0.00000
      33.1000       0.00000
      33.2000       0.00000
      33.3000       0.00000
      33.4000       0.00000
      33.5000       0.00000
      33.6000       0.00000
      33.7000       0.00000
      33.8000       0.00000
      33.9000       0.00000
      34.0000       0.00000
      34.1000       0.00000
      34.2000       0.00000
      34.3000       0.00000
      34.4000       0.00000
      34.5000       0.00000
      34.6000       0.00000
      34.7000       0.00000
      34.8000       0.00000
      34.9000       0.00000
      35.0000       0.00000
      35.1000       0.00000
      35.2000       0.00000
      35.3000       0.00000
      35.4000       0.00000
      35.5000       0.00000
      35.6000       0.00000
      35.7000       0.00000
      35.8000       0.00000
      35.9000       0.00000
      36.0000       0.00000
      36.1000       0.00000
      36.2000       0.00000
      36.3000       0.00000
      36.4000       0.00000
      36.5000       0.00000
      36.6000       0.00000
      36.7000       0.00000
      36.8000       0.00000
      36.9000       0.00000
      37.0000       0.00000
      37.1000       0.00000
      37.2000       0.00000
      37.3000       0.00000
      37.4000       0.00000
      37.5000       0.00000
      37.6000       0.00000
      37.7000       0.00000
      37.8000       0.00000
      37.9000       0.00000
      38.0000       0.00000
      38.1000       0.00000
      38.2000       0.00000
      38.3000       0.00000
      38.4000       0.00000
      38.5000       0.00000
      38.6000       0.00000
      38.7000       0.00000
      38.8000       0.00000
      38.9000       0.00000
      39.0000       0.00000
      39.1000       0.00000
      39.2000       0.00000
      39.3000       0.00000
      39.4000       0.00000
      39.5000       0.00000
      39.6000       0.00000
      39.7000       0.00000
      39.8000       0.00000
      39.9000       0.00000
      40.0000       0.00000
      40.1000       0.00000
      40.2000       0.00000
      40.3000       0.00000
      40.4000       0.00000
      40.5000       0.00000
      40.6000       0.00000
      40.7000       0.00000
      40.8000       0.00000
      40.9000       0.00000
      41.0000       0.00000
      41.1000       0.00000
      41.2000       0.00000
      41.3000       0.00000
      41.4000       0.00000
      41.5000       0.00000
      41.6000       0.00000
      41.7000       0.00000
      41.8000       0.00000
      41.9000       0.00000
      42.0000       0.00000
      42.1000       0.00000
      42.2000       0.00000
      42.3000       0.00000
      42.4000       0.00000
      42.5000       0.00000
      42.6000       0.00000
      42.7000       0.00000
      42.8000       0.00000
      42.9000       0.00000
      43.0000       0.00000
      43.1000       0.00000
      43.2000       0.00000
      43.3000       0.00000
      43.4000       0.00000
      43.5000       0.00000
      43.6000       0.00000
      43.7000       0.00000
      43.8000       0.00000
      43.9000       0.00000
      44.0000       0.00000
      44.1000       0.00000
      44.2000       0.00000
      44.3000       0.00000
      44.4000       0.00000
      44.5000       0.00000
      44.6000       0.00000
      44.7000       0.00000
      44.8000       0.00000
      44.9000       0.00000
      45.0000       0.00000
      45.1000       0.00000
      45.2000       0.00000
      45.3000       0.00000
      45.4000       0.00000
      45.5000       0.00000
      45.6000       0.00000
      45.7000       0.00000
      45.8000       0.00000
      45.9000       0.00000
      46.0000       0.00000
      46.1000       0.00000
      46.2000       0.00000
      46.3000       0.00000
      46.4000       0.00000
      46.5000       0.00000
      46.6000       0.00000
      46.7000       0.00000
      46.8000       0.00000
      46.9000       0.00000
      47.0000       0.00000
      47.1000       0.00000
      47.2000       0.00000
      47.3000       0.00000
      47.4000       0.00000
      47.5000       0.00000
      47.6000       0.00000
      47.7000       0.00000
      47.8000       0.00000
      47.9000       0.00000
      48.0000       0.00000
      48.1000       0.00000
      48.2000       0.00000
      48.3000       0.00000
      48.4000       0.00000
      48.5000       0.00000
      48.6000       0.00000
      48.7000       0.00000
      48.8000       0.00000
      48.9000       0.00000
      49.0000       0.00000
      49.1000       0.00000
      49.2000       0.00000
      49.3000       0.00000
      49.4000       0.00000
      49.5000       0.00000
      49.6000       0.00000
      49.7000       0.00000
      49.8000       0.00000
      49.9000       0.00000
      50.0000       0.00000
      50.1000       0.00000
      50.2000       0.00000
      50.3000       0.00000
      50.4000       0.00000
      50.5000       0.00000
      50.6000       0.00000
      50.7000       0.00000
      50.8000       0.00000
      50.9000       0.00000
      51.0000       0.00000
      51.1000       0.00000
      51.2000       0.00000
      51.3000       0.00000
      51.4000       0.00000
      51.5000       0.00000
      51.6000       0.00000
      51.7000       0.00000
      51.8000       0.00000
      51.9000       0.00000
      52.0000       0.00000
      52.1000       0.00000
      52.2000       0.00000
      52.3000       0.00000
      52.4000       0.00000
      52.5000       0.00000
      52.6000       0.00000
      52.7000       0.00000
      52.8000       0.00000
      52.9000       0.00000
      53.0000       0.00000
      53.1000       0.00000
      53.2000       0.00000
      53.3000       0.00000
      53.4000       0.00000
      53.5000       0.00000
      53.6000       0.00000
      53.7000       0.00000
      53.8000       0.00000
      53.9000       0.00000
      54.0000       0.00000
      54.1000       0.00000
      54.2000       0.00000
      54.3000       0.00000
      54.4000       0.00000
      54.5000       0.00000
      54.6000       0.00000
      54.7000       0.00000
      54.8000       0.00000
      54.9000       0.00000
      55.0000       0.00000
      55.1000       0.00000
      55.2000       0.00000
      55.3000       0.00000
      55.4000       0.00000
      55.5000       0.00000
      55.6000       0.00000
      55.7000       0.00000
      55.8000       0.00000
      55.9000       0.00000
      56.0000       0.00000
      56.1000       0.00000
      56.2000       0.00000
      56.3000       0.00000
      56.4000       0.00000
      56.5000       0.00000
      56.6000       0.00000
      56.7000       0.00000
      56.8000       0.00000
      56.9000       0.00000
      57.0000       0.00000
      57.1000       0.00000
      57.2000       0.00000
      57.3000       0.00000
      57.4000       0.00000
      57.5000       0.00000
      57.6000       0.00000
      57.7000       0.00000
      57.8000       0.00000
      57.9000       0.00000
      58.0000       0.00000
      58.1000       0.00000
      58.2000       0.00000
      58.3000       0.00000
      58.4000       0.00000
      58.5000       0.00000
      58.6000       0.00000
      58.7000       0.00000
      58.8000       0.00000
      58.9000       0.00000
      59.0000       0.00000
      59.1000       0.00000
      59.2000       0.00000
      59.3000       0.00000
      59.4000       0.00000
      59.5000       0.00000
      59.6000       0.00000
      59.7000       0.00000
      59.8000       0.00000
      59.9000       0.00000
      60.0000       0.00000
      60.1000       0.00000
      60.2000       0.00000
      60.3000       0.00000
      60.4000       0.00000
      60.5000       0.00000
      60.6000       0.00000
      60.7000       0.00000
      60.8000       0.00000
      60.9000       0.00000
      61.0000       0.00000
      61.1000       0.00000
      61.2000       0.00000
      61.3000       0.00000
      61.4000       0.00000
      61.5000       0.00000
      61.6000       0.00000
      61.7000       0.00000
      61.8000       0.00000
      61.9000       0.00000
      62.0000       0.00000
      62.1000       0.00000
      62.2000       0.00000
      62.3000       0.00000
      62.4000       0.00000
      62.5000       0.00000
      62.6000       0.00000
      62.7000       0.00000
      62.8000       0.00000
      62.9000       0.00000
      63.0000       0.00000
      63.1000       0.00000
      63.2000       0.00000
      63.3000       0.00000
      63.4000       0.00000
      63.5000       0.00000
      63.6000       0.00000
      63.7000       0.00000
      63.8000       0.00000
      63.9000       0.00000
      64.0000       0.00000
      64.1000       0.00000
      64.2000       0.00000
      64.3000       0.00000
      64.4000       0.00000
      64.5000       0.00000
      64.6000       0.00000
      64.7000       0.00000
      64.8000       0.00000
      64.9000       0.00000
      65.0000       0.00000
      65.1000       0.00000
      65.2000       0.00000
      65.3000       0.00000
      65.4000       0.00000
      65.5000       0.00000
      65.6000       0.00000
      65.7000       0.00000
      65.8000       0.00000
      65.9000       0.00000
      66.0000       0.00000
      66.1000       0.00000
      66.2000       0.00000
      66.3000       0.00000
      66.4000       0.00000
      66.5000       0.00000
      66.6000       0.00000
      66.7000       0.00000
      66.8000       0.00000
      66.9000       0.00000
      67.0000       0.00000
      67.1000       0.00000
      67.2000       0.00000
      67.3000       0.00000
      67.4000       0.00000
      67.5000       0.00000
      67.6000       0.00000
      67.7000       0.00000
      67.8000       0.00000
      67.9000       0.00000
      68.0000       0.00000
      68.1000       0.00000
      68.2000       0.00000
      68.3000       0.00000
      68.4000       0.00000
      68.5000       0.00000
      68.6000       0.00000
      68.7000       0.00000
      68.8000       0.00000
      68.9000       0.00000
      69.0000       0.00000
      69.1000       0.00000
      69.2000       0.00000
      69.3000       0.00000
      69.4000       0.00000
      69.5000       0.00000
      69.6000       0.00000
      69.7000       0.00000
      69.8000       0.00000
      69.9000       0.00000
      70.0000       0.00000
      70.1000       0.00000
      70.2000       0.00000
      70.3000       0.00000
      70.4000       0.00000
      70.5000       0.00000
      70.6000       0.00000
      70.7000       0.00000
      70.8000       0.00000
      70.9000       0.00000
      71.0000       0.00000
      71.1000       0.00000
      71.2000       0.00000
      71.3000       0.00000
      71.4000       0.00000
      71.5000       0.00000
      71.6000       0.00000
      71.7000       0.00000
      71.8000       0.00000
      71.9000       0.00000
      72.0000       0.00000
