Filter Ti-poly
observation_date 22-Sept-2006 22:40:45
wavelength effective area 
      1.00000   2.76780e-10
      1.10000   7.88654e-10
      1.20000   2.04574e-09
      1.30000   4.87950e-09
      1.40000   1.10404e-08
      1.50000   2.34784e-08
      1.60000   4.73616e-08
      1.70000   9.15884e-08
      1.80000   1.69792e-07
      1.90000   3.03772e-07
      2.00000   5.25515e-07
      2.10000   8.82978e-07
      2.20000   1.44785e-06
      2.30000   2.31380e-06
      2.40000   3.61027e-06
      2.50000   5.78669e-06
      2.60000   8.95896e-06
      2.70000   1.33570e-05
      2.80000   1.95333e-05
      2.90000   2.82724e-05
      3.00000   4.02831e-05
      3.10000   5.66592e-05
      3.20000   7.88236e-05
      3.30000   0.000108544
      3.40000   0.000147916
      3.50000   0.000199621
      3.60000   0.000268163
      3.70000   0.000356420
      3.80000   0.000471768
      3.90000   0.000620992
      4.00000   0.000812342
      4.10000    0.00105775
      4.20000    0.00137239
      4.30000    0.00177559
      4.40000    0.00229117
      4.50000    0.00294838
      4.60000    0.00378144
      4.70000    0.00484979
      4.80000    0.00621373
      4.90000    0.00785900
      5.00000     0.0102018
      5.10000     0.0130565
      5.20000     0.0167599
      5.30000     0.0213320
      5.40000     0.0271083
      5.50000     0.0345094
      5.60000     0.0425842
      5.70000     0.0553618
      5.80000     0.0649124
      5.90000     0.0991251
      6.00000      0.133268
      6.10000      0.170354
      6.20000      0.209224
      6.30000      0.246312
      6.40000      0.278151
      6.50000      0.301612
      6.60000      0.312256
      6.70000      0.322051
      6.80000      0.322540
      6.90000      0.423229
      7.00000      0.460346
      7.10000      0.486949
      7.20000      0.508108
      7.30000      0.525387
      7.40000      0.538605
      7.50000      0.549150
      7.60000      0.557130
      7.70000      0.561069
      7.80000      0.559877
      7.90000      0.559354
      8.00000      0.808887
      8.10000      0.885400
      8.20000      0.899685
      8.30000      0.909863
      8.40000      0.916543
      8.50000      0.921771
      8.60000      0.925264
      8.70000      0.927627
      8.80000      0.928558
      8.90000      0.928523
      9.00000      0.927457
      9.10000      0.925409
      9.20000      0.922564
      9.30000      0.918840
      9.40000      0.914383
      9.50000      0.909250
      9.60000      0.903392
      9.70000      0.896918
      9.80000      0.889975
      9.90000      0.882592
      10.0000      0.874829
      10.1000      0.866697
      10.2000      0.858222
      10.3000      0.849349
      10.4000      0.840105
      10.5000      0.830513
      10.6000      0.820616
      10.7000      0.810435
      10.8000      0.799982
      10.9000      0.789286
      11.0000      0.778363
      11.1000      0.767247
      11.2000      0.755943
      11.3000      0.744483
      11.4000      0.732862
      11.5000      0.721082
      11.6000      0.709163
      11.7000      0.697049
      11.8000      0.684825
      11.9000      0.672403
      12.0000      0.659091
      12.1000      0.648171
      12.2000      0.648599
      12.3000      0.642170
      12.4000      0.630992
      12.5000      0.619416
      12.6000      0.607693
      12.7000      0.595924
      12.8000      0.584146
      12.9000      0.572373
      13.0000      0.560646
      13.1000      0.548996
      13.2000      0.537440
      13.3000      0.525991
      13.4000      0.514667
      13.5000      0.503601
      13.6000      0.492767
      13.7000      0.482053
      13.8000      0.471456
      13.9000      0.460994
      14.0000      0.450666
      14.1000      0.440458
      14.2000      0.430371
      14.3000      0.420402
      14.4000      0.410541
      14.5000      0.400801
      14.6000      0.391186
      14.7000      0.381685
      14.8000      0.372303
      14.9000      0.363043
      15.0000      0.353907
      15.1000      0.344902
      15.2000      0.336054
      15.3000      0.327346
      15.4000      0.318772
      15.5000      0.310334
      15.6000      0.302052
      15.7000      0.293921
      15.8000      0.285981
      15.9000      0.278201
      16.0000      0.270579
      16.1000      0.263117
      16.2000      0.255855
      16.3000      0.248742
      16.4000      0.241764
      16.5000      0.234916
      16.6000      0.228213
      16.7000      0.221660
      16.8000      0.215228
      16.9000      0.208913
      17.0000      0.202742
      17.1000      0.196713
      17.2000      0.190794
      17.3000      0.184993
      17.4000      0.179442
      17.5000      0.174099
      17.6000      0.168941
      17.7000      0.163992
      17.8000      0.159348
      17.9000      0.154802
      18.0000      0.150323
      18.1000      0.145956
      18.2000      0.141627
      18.3000      0.137328
      18.4000      0.133049
      18.5000      0.128801
      18.6000      0.124569
      18.7000      0.120338
      18.8000      0.116219
      18.9000      0.112181
      19.0000      0.108261
      19.1000      0.104465
      19.2000      0.100757
      19.3000     0.0971950
      19.4000     0.0937484
      19.5000     0.0903872
      19.6000     0.0871944
      19.7000     0.0840865
      19.8000     0.0810553
      19.9000     0.0781724
      20.0000     0.0753477
      20.1000     0.0726050
      20.2000     0.0699525
      20.3000     0.0673500
      20.4000     0.0648471
      20.5000     0.0624025
      20.6000     0.0600110
      20.7000     0.0577160
      20.8000     0.0554608
      20.9000     0.0532805
      21.0000     0.0512660
      21.1000     0.0493786
      21.2000     0.0478788
      21.3000     0.0464889
      21.4000     0.0453406
      21.5000     0.0444658
      21.6000     0.0438675
      21.7000     0.0432361
      21.8000     0.0425925
      21.9000     0.0418584
      22.0000     0.0410686
      22.1000     0.0401430
      22.2000     0.0389760
      22.3000     0.0376000
      22.4000     0.0354617
      22.5000     0.0330876
      22.6000     0.0279021
      22.7000     0.0245859
      22.8000     0.0310302
      22.9000     0.0392018
      23.0000     0.0491471
      23.1000     0.0552092
      23.2000     0.0576263
      23.3000     0.0574899
      23.4000     0.0560858
      23.5000     0.0546457
      23.6000     0.0532003
      23.7000     0.0516605
      23.8000     0.0501192
      23.9000     0.0486169
      24.0000     0.0471218
      24.1000     0.0456471
      24.2000     0.0441883
      24.3000     0.0427770
      24.4000     0.0413828
      24.5000     0.0400277
      24.6000     0.0386957
      24.7000     0.0374089
      24.8000     0.0361455
      24.9000     0.0349225
      25.0000     0.0337249
      25.1000     0.0325693
      25.2000     0.0314374
      25.3000     0.0303449
      25.4000     0.0292757
      25.5000     0.0282480
      25.6000     0.0272410
      25.7000     0.0262760
      25.8000     0.0253281
      25.9000     0.0244229
      26.0000     0.0235304
      26.1000     0.0226813
      26.2000     0.0218404
      26.3000     0.0210464
      26.4000     0.0202556
      26.5000     0.0195127
      26.6000     0.0187723
      26.7000     0.0180749
      26.8000     0.0173855
      26.9000     0.0167292
      27.0000     0.0160848
      27.1000     0.0154640
      27.2000     0.0148591
      27.3000     0.0641357
      27.4000      0.175700
      27.5000      0.257124
      27.6000      0.253210
      27.7000      0.249301
      27.8000      0.245296
      27.9000      0.241303
      28.0000      0.237382
      28.1000      0.233486
      28.2000      0.229649
      28.3000      0.225856
      28.4000      0.222102
      28.5000      0.218414
      28.6000      0.214747
      28.7000      0.211196
      28.8000      0.207657
      28.9000      0.204188
      29.0000      0.200746
      29.1000      0.197348
      29.2000      0.193999
      29.3000      0.190671
      29.4000      0.187418
      29.5000      0.184176
      29.6000      0.181003
      29.7000      0.177855
      29.8000      0.174749
      29.9000      0.171697
      30.0000      0.168657
      30.1000      0.165697
      30.2000      0.162747
      30.3000      0.166134
      30.4000      0.173136
      30.5000      0.178002
      30.6000      0.174993
      30.7000      0.171995
      30.8000      0.169063
      30.9000      0.166157
      31.0000      0.163285
      31.1000      0.160476
      31.2000      0.157676
      31.3000      0.154945
      31.4000      0.152237
      31.5000      0.149565
      31.6000      0.146961
      31.7000      0.144366
      31.8000      0.141830
      31.9000      0.139315
      32.0000      0.136807
      32.1000      0.134301
      32.2000      0.131803
      32.3000      0.129365
      32.4000      0.126957
      32.5000      0.124568
      32.6000      0.122270
      32.7000      0.119980
      32.8000      0.117734
      32.9000      0.115531
      33.0000      0.113334
      33.1000      0.111262
      33.2000      0.109212
      33.3000      0.107184
      33.4000      0.105211
      33.5000      0.103246
      33.6000      0.101327
      33.7000     0.0994406
      33.8000     0.0975602
      33.9000     0.0957413
      34.0000     0.0939358
      34.1000     0.0921596
      34.2000     0.0904330
      34.3000     0.0887111
      34.4000     0.0870206
      34.5000     0.0853687
      34.6000     0.0837215
      34.7000     0.0821097
      34.8000     0.0805168
      34.9000     0.0789283
      35.0000     0.0773979
      35.1000     0.0758774
      35.2000     0.0743719
      35.3000     0.0729600
      35.4000     0.0715520
      35.5000     0.0701631
      35.6000     0.0688154
      35.7000     0.0674715
      35.8000     0.0661542
      35.9000     0.0648692
      36.0000     0.0635876
      36.1000     0.0623388
      36.2000     0.0611145
      36.3000     0.0598937
      36.4000     0.0587096
      36.5000     0.0575439
      36.6000     0.0563814
      36.7000     0.0552591
      36.8000     0.0541505
      36.9000     0.0530451
      37.0000     0.0519815
      37.1000     0.0509282
      37.2000     0.0498777
      37.3000     0.0488701
      37.4000     0.0478705
      37.5000     0.0468736
      37.6000     0.0459186
      37.7000     0.0449705
      37.8000     0.0440251
      37.9000     0.0431202
      38.0000     0.0422224
      38.1000     0.0413271
      38.2000     0.0404694
      38.3000     0.0396198
      38.4000     0.0387724
      38.5000     0.0379593
      38.6000     0.0371562
      38.7000     0.0363551
      38.8000     0.0355841
      38.9000     0.0348257
      39.0000     0.0340692
      39.1000     0.0333380
      39.2000     0.0326227
      39.3000     0.0319092
      39.4000     0.0312153
      39.5000     0.0305413
      39.6000     0.0298691
      39.7000     0.0292104
      39.8000     0.0285763
      39.9000     0.0279439
      40.0000     0.0273186
      40.1000     0.0267235
      40.2000     0.0261299
      40.3000     0.0255379
      40.4000     0.0249777
      40.5000     0.0244204
      40.6000     0.0238646
      40.7000     0.0233322
      40.8000     0.0228095
      40.9000     0.0222882
      41.0000     0.0217818
      41.1000     0.0212921
      41.2000     0.0208036
      41.3000     0.0203219
      41.4000     0.0198645
      41.5000     0.0194081
      41.6000     0.0189529
      41.7000     0.0185220
      41.8000     0.0180955
      41.9000     0.0176701
      42.0000     0.0172599
      42.1000     0.0168622
      42.2000     0.0164655
      42.3000     0.0160741
      42.4000     0.0157035
      42.5000     0.0153337
      42.6000     0.0149649
      42.7000     0.0146148
      42.8000     0.0142704
      42.9000     0.0139267
      43.0000     0.0135921
      43.1000     0.0132719
      43.2000     0.0129525
      43.3000     0.0126339
      43.4000     0.0386126
      43.5000     0.0665351
      43.6000     0.0943934
      43.7000      0.108808
      43.8000      0.107362
      43.9000      0.105920
      44.0000      0.104481
      44.1000      0.103088
      44.2000      0.101700
      44.3000      0.100315
      44.4000     0.0989510
      44.5000     0.0976141
      44.6000     0.0962802
      44.7000     0.0949495
      44.8000     0.0936614
      44.9000     0.0923820
      45.0000     0.0911055
      45.1000     0.0898438
      45.2000     0.0886136
      45.3000     0.0873863
      45.4000     0.0861617
      45.5000     0.0849673
      45.6000     0.0837883
      45.7000     0.0826121
      45.8000     0.0814399
      45.9000     0.0803079
      46.0000     0.0791784
      46.1000     0.0780515
      46.2000     0.0769755
      46.3000     0.0759853
      46.4000     0.0749975
      46.5000     0.0740118
      46.6000     0.0730621
      46.7000     0.0721313
      46.8000     0.0712026
      46.9000     0.0702760
      47.0000     0.0693988
      47.1000     0.0685268
      47.2000     0.0676567
      47.3000     0.0667941
      47.4000     0.0659602
      47.5000     0.0651280
      47.6000     0.0642978
      47.7000     0.0634834
      47.8000     0.0626933
      47.9000     0.0619048
      48.0000     0.0611182
      48.1000     0.0603493
      48.2000     0.0595943
      48.3000     0.0588410
      48.4000     0.0580893
      48.5000     0.0573649
      48.6000     0.0566522
      48.7000     0.0559410
      48.8000     0.0552314
      48.9000     0.0545456
      49.0000     0.0538656
      49.1000     0.0531871
      49.2000     0.0525102
      49.3000     0.0518565
      49.4000     0.0512059
      49.5000     0.0505568
      49.6000     0.0499090
      49.7000     0.0492846
      49.8000     0.0486620
      49.9000     0.0480407
      50.0000     0.0474215
      50.1000     0.0468214
      50.2000     0.0462340
      50.3000     0.0456535
      50.4000     0.0450792
      50.5000     0.0445109
      50.6000     0.0439493
      50.7000     0.0433943
      50.8000     0.0428454
      50.9000     0.0423032
      51.0000     0.0417673
      51.1000     0.0412378
      51.2000     0.0407141
      51.3000     0.0401973
      51.4000     0.0396873
      51.5000     0.0391816
      51.6000     0.0386812
      51.7000     0.0381860
      51.8000     0.0376914
      51.9000     0.0372021
      52.0000     0.0367179
      52.1000     0.0362394
      52.2000     0.0357659
      52.3000     0.0352972
      52.4000     0.0348353
      52.5000     0.0343788
      52.6000     0.0339165
      52.7000     0.0334488
      52.8000     0.0329861
      52.9000     0.0325296
      53.0000     0.0320793
      53.1000     0.0316336
      53.2000     0.0311941
      53.3000     0.0307598
      53.4000     0.0303302
      53.5000     0.0299062
      53.6000     0.0294874
      53.7000     0.0290732
      53.8000     0.0286642
      53.9000     0.0282601
      54.0000     0.0278614
      54.1000     0.0274688
      54.2000     0.0270806
      54.3000     0.0266963
      54.4000     0.0263169
      54.5000     0.0259421
      54.6000     0.0255720
      54.7000     0.0252077
      54.8000     0.0248481
      54.9000     0.0244925
      55.0000     0.0241413
      55.1000     0.0237939
      55.2000     0.0234400
      55.3000     0.0230817
      55.4000     0.0227282
      55.5000     0.0223787
      55.6000     0.0220341
      55.7000     0.0216942
      55.8000     0.0213584
      55.9000     0.0210277
      56.0000     0.0207046
      56.1000     0.0203819
      56.2000     0.0200600
      56.3000     0.0197426
      56.4000     0.0194293
      56.5000     0.0191202
      56.6000     0.0188159
      56.7000     0.0185159
      56.8000     0.0182197
      56.9000     0.0179283
      57.0000     0.0176481
      57.1000     0.0173763
      57.2000     0.0171082
      57.3000     0.0168435
      57.4000     0.0165823
      57.5000     0.0163246
      57.6000     0.0160704
      57.7000     0.0158195
      57.8000     0.0155726
      57.9000     0.0153296
      58.0000     0.0150899
      58.1000     0.0148528
      58.2000     0.0146192
      58.3000     0.0143888
      58.4000     0.0141615
      58.5000     0.0139375
      58.6000     0.0137171
      58.7000     0.0134996
      58.8000     0.0132850
      58.9000     0.0130734
      59.0000     0.0128647
      59.1000     0.0126589
      59.2000     0.0124562
      59.3000     0.0122565
      59.4000     0.0120596
      59.5000     0.0118656
      59.6000     0.0116743
      59.7000     0.0114857
      59.8000     0.0112996
      59.9000     0.0111162
      60.0000     0.0109357
      60.1000     0.0107578
      60.2000     0.0105824
      60.3000     0.0104096
      60.4000     0.0102395
      60.5000     0.0100719
      60.6000    0.00990659
      60.7000    0.00974342
      60.8000    0.00958254
      60.9000    0.00942382
      61.0000    0.00926759
      61.1000    0.00911391
      61.2000    0.00896253
      61.3000    0.00881335
      61.4000    0.00866641
      61.5000    0.00852166
      61.6000    0.00837895
      61.7000    0.00823877
      61.8000    0.00810317
      61.9000    0.00797045
      62.0000    0.00783967
      62.1000    0.00771079
      62.2000    0.00758403
      62.3000    0.00745914
      62.4000    0.00733597
      62.5000    0.00721456
      62.6000    0.00709494
      62.7000    0.00697753
      62.8000    0.00686731
      62.9000    0.00675882
      63.0000    0.00665195
      63.1000    0.00654660
      63.2000    0.00644266
      63.3000    0.00634013
      63.4000    0.00623911
      63.5000    0.00613966
      63.6000    0.00604156
      63.7000    0.00594483
      63.8000    0.00584961
      63.9000    0.00575584
      64.0000    0.00566341
      64.1000    0.00557234
      64.2000    0.00548272
      64.3000    0.00539447
      64.4000    0.00530743
      64.5000    0.00522153
      64.6000    0.00513684
      64.7000    0.00505336
      64.8000    0.00497108
      64.9000    0.00489000
      65.0000    0.00481020
      65.1000    0.00473177
      65.2000    0.00465454
      65.3000    0.00457837
      65.4000    0.00450328
      65.5000    0.00442923
      65.6000    0.00435621
      65.7000    0.00428431
      65.8000    0.00421355
      65.9000    0.00414395
      66.0000    0.00407548
      66.1000    0.00400810
      66.2000    0.00394171
      66.3000    0.00387629
      66.4000    0.00381183
      66.5000    0.00374829
      66.6000    0.00368565
      66.7000    0.00362399
      66.8000    0.00356337
      66.9000    0.00350406
      67.0000    0.00344597
      67.1000    0.00338878
      67.2000    0.00333246
      67.3000    0.00327704
      67.4000    0.00322243
      67.5000    0.00316861
      67.6000    0.00311560
      67.7000    0.00306343
      67.8000    0.00301198
      67.9000    0.00296112
      68.0000    0.00291099
      68.1000    0.00286168
      68.2000    0.00281313
      68.3000    0.00276534
      68.4000    0.00271830
      68.5000    0.00267200
      68.6000    0.00262646
      68.7000    0.00258164
      68.8000    0.00253751
      68.9000    0.00249470
      69.0000    0.00245604
      69.1000    0.00242118
      69.2000    0.00238735
      69.3000    0.00235441
      69.4000    0.00232278
      69.5000    0.00229053
      69.6000    0.00225729
      69.7000    0.00222543
      69.8000    0.00219511
      69.9000    0.00216521
      70.0000    0.00213563
      70.1000    0.00210582
      70.2000    0.00207750
      70.3000    0.00205065
      70.4000    0.00202389
      70.5000    0.00199783
      70.6000    0.00197241
      70.7000    0.00194733
      70.8000    0.00192252
      70.9000    0.00189710
      71.0000    0.00187118
      71.1000    0.00184647
      71.2000    0.00182294
      71.3000    0.00179798
      71.4000    0.00177125
      71.5000    0.00174665
      71.6000    0.00172515
      71.7000    0.00170349
      71.8000    0.00168110
      71.9000    0.00165949
      72.0000    0.00163952
