Filter Ti-poly
observation_date 22Sept2021
wavelength effective area
      1.00000   2.76776e-10
      1.10000   7.88638e-10
      1.20000   2.04568e-09
      1.30000   4.87933e-09
      1.40000   1.10399e-08
      1.50000   2.34772e-08
      1.60000   4.73585e-08
      1.70000   9.15813e-08
      1.80000   1.69776e-07
      1.90000   3.03739e-07
      2.00000   5.25447e-07
      2.10000   8.82846e-07
      2.20000   1.44760e-06
      2.30000   2.31334e-06
      2.40000   3.60945e-06
      2.50000   5.78521e-06
      2.60000   8.95638e-06
      2.70000   1.33527e-05
      2.80000   1.95263e-05
      2.90000   2.82610e-05
      3.00000   4.02652e-05
      3.10000   5.66313e-05
      3.20000   7.87808e-05
      3.30000   0.000108480
      3.40000   0.000147820
      3.50000   0.000199479
      3.60000   0.000267955
      3.70000   0.000356120
      3.80000   0.000471339
      3.90000   0.000620381
      4.00000   0.000811480
      4.10000    0.00105654
      4.20000    0.00137071
      4.30000    0.00177326
      4.40000    0.00228795
      4.50000    0.00294395
      4.60000    0.00377538
      4.70000    0.00484150
      4.80000    0.00620243
      4.90000    0.00784382
      5.00000     0.0101809
      5.10000     0.0130282
      5.20000     0.0167214
      5.30000     0.0212802
      5.40000     0.0270387
      5.50000     0.0344159
      5.60000     0.0424627
      5.70000     0.0551954
      5.80000     0.0647072
      5.90000     0.0987959
      6.00000      0.132803
      6.10000      0.169730
      6.20000      0.208422
      6.30000      0.245323
      6.40000      0.276983
      6.50000      0.300287
      6.60000      0.310823
      6.70000      0.320507
      6.80000      0.320927
      6.90000      0.421022
      7.00000      0.457843
      7.10000      0.484191
      7.20000      0.505113
      7.30000      0.522166
      7.40000      0.535173
      7.50000      0.545514
      7.60000      0.553299
      7.70000      0.557065
      7.80000      0.555732
      7.90000      0.555059
      8.00000      0.802451
      8.10000      0.878102
      8.20000      0.892006
      8.30000      0.901825
      8.40000      0.908168
      8.50000      0.913063
      8.60000      0.916231
      8.70000      0.918272
      8.80000      0.918888
      8.90000      0.918541
      9.00000      0.917169
      9.10000      0.914821
      9.20000      0.911680
      9.30000      0.907666
      9.40000      0.902924
      9.50000      0.897512
      9.60000      0.891382
      9.70000      0.884643
      9.80000      0.877441
      9.90000      0.869806
      10.0000      0.861798
      10.1000      0.853428
      10.2000      0.844721
      10.3000      0.835625
      10.4000      0.826164
      10.5000      0.816365
      10.6000      0.806267
      10.7000      0.795895
      10.8000      0.785257
      10.9000      0.774386
      11.0000      0.763297
      11.1000      0.752022
      11.2000      0.740568
      11.3000      0.728967
      11.4000      0.717215
      11.5000      0.705314
      11.6000      0.693282
      11.7000      0.681069
      11.8000      0.668754
      11.9000      0.656258
      12.0000      0.642903
      12.1000      0.631892
      12.2000      0.631945
      12.3000      0.625315
      12.4000      0.614065
      12.5000      0.602435
      12.6000      0.590672
      12.7000      0.578873
      12.8000      0.567076
      12.9000      0.555292
      13.0000      0.543563
      13.1000      0.531921
      13.2000      0.520379
      13.3000      0.508954
      13.4000      0.497661
      13.5000      0.486630
      13.6000      0.475837
      13.7000      0.465171
      13.8000      0.454626
      13.9000      0.444224
      14.0000      0.433962
      14.1000      0.423825
      14.2000      0.413815
      14.3000      0.403930
      14.4000      0.394159
      14.5000      0.384515
      14.6000      0.375001
      14.7000      0.365607
      14.8000      0.356338
      14.9000      0.347196
      15.0000      0.338184
      15.1000      0.329309
      15.2000      0.320594
      15.3000      0.312024
      15.4000      0.303593
      15.5000      0.295303
      15.6000      0.287172
      15.7000      0.279197
      15.8000      0.271414
      15.9000      0.263794
      16.0000      0.256336
      16.1000      0.249040
      16.2000      0.241945
      16.3000      0.235002
      16.4000      0.228196
      16.5000      0.221524
      16.6000      0.214999
      16.7000      0.208625
      16.8000      0.202374
      16.9000      0.196244
      17.0000      0.190259
      17.1000      0.184417
      17.2000      0.178688
      17.3000      0.173079
      17.4000      0.167714
      17.5000      0.162560
      17.6000      0.157586
      17.7000      0.152820
      17.8000      0.148353
      17.9000      0.143985
      18.0000      0.139684
      18.1000      0.135494
      18.2000      0.131346
      18.3000      0.127230
      18.4000      0.123139
      18.5000      0.119083
      18.6000      0.115047
      18.7000      0.111017
      18.8000      0.107098
      18.9000      0.103262
      19.0000     0.0995415
      19.1000     0.0959426
      19.2000     0.0924320
      19.3000     0.0890619
      19.4000     0.0858049
      19.5000     0.0826329
      19.6000     0.0796215
      19.7000     0.0766941
      19.8000     0.0738427
      19.9000     0.0711325
      20.0000     0.0684809
      20.1000     0.0659094
      20.2000     0.0634252
      20.3000     0.0609915
      20.4000     0.0586532
      20.5000     0.0563728
      20.6000     0.0541452
      20.7000     0.0520097
      20.8000     0.0499146
      20.9000     0.0478917
      21.0000     0.0460223
      21.1000     0.0442710
      21.2000     0.0428709
      21.3000     0.0415721
      21.4000     0.0404921
      21.5000     0.0396584
      21.6000     0.0390726
      21.7000     0.0384586
      21.8000     0.0378348
      21.9000     0.0371320
      22.0000     0.0363812
      22.1000     0.0355120
      22.2000     0.0344315
      22.3000     0.0331693
      22.4000     0.0312387
      22.5000     0.0291058
      22.6000     0.0245091
      22.7000     0.0216844
      22.8000     0.0278431
      22.9000     0.0355837
      23.0000     0.0446127
      23.1000     0.0500871
      23.2000     0.0521827
      23.3000     0.0520027
      23.4000     0.0506773
      23.5000     0.0493217
      23.6000     0.0479641
      23.7000     0.0465240
      23.8000     0.0450854
      23.9000     0.0436846
      24.0000     0.0422931
      24.1000     0.0409228
      24.2000     0.0395695
      24.3000     0.0382613
      24.4000     0.0369712
      24.5000     0.0357186
      24.6000     0.0344893
      24.7000     0.0333029
      24.8000     0.0321398
      24.9000     0.0310151
      25.0000     0.0299153
      25.1000     0.0288550
      25.2000     0.0278181
      25.3000     0.0268184
      25.4000     0.0258414
      25.5000     0.0249033
      25.6000     0.0239858
      25.7000     0.0231075
      25.8000     0.0222462
      25.9000     0.0214243
      26.0000     0.0206154
      26.1000     0.0198464
      26.2000     0.0190863
      26.3000     0.0183689
      26.4000     0.0176560
      26.5000     0.0169864
      26.6000     0.0163207
      26.7000     0.0156938
      26.8000     0.0150753
      26.9000     0.0144871
      27.0000     0.0139105
      27.1000     0.0133558
      27.2000     0.0128161
      27.3000     0.0552428
      27.4000      0.151132
      27.5000      0.220869
      27.6000      0.217208
      27.7000      0.213560
      27.8000      0.209837
      27.9000      0.206133
      28.0000      0.202499
      28.1000      0.198895
      28.2000      0.195349
      28.3000      0.191849
      28.4000      0.188390
      28.5000      0.184995
      28.6000      0.181625
      28.7000      0.178362
      28.8000      0.175117
      28.9000      0.171938
      29.0000      0.168790
      29.1000      0.165686
      29.2000      0.162631
      29.3000      0.159602
      29.4000      0.156643
      29.5000      0.153700
      29.6000      0.150821
      29.7000      0.147971
      29.8000      0.145164
      29.9000      0.142408
      30.0000      0.139669
      30.1000      0.137003
      30.2000      0.134353
      30.3000      0.136932
      30.4000      0.142478
      30.5000      0.146249
      30.6000      0.143547
      30.7000      0.140861
      30.8000      0.138235
      30.9000      0.135639
      31.0000      0.133076
      31.1000      0.130573
      31.2000      0.128084
      31.3000      0.125657
      31.4000      0.123255
      31.5000      0.120890
      31.6000      0.118586
      31.7000      0.116295
      31.8000      0.114059
      31.9000      0.111846
      32.0000      0.109645
      32.1000      0.107451
      32.2000      0.105271
      32.3000      0.103144
      32.4000      0.101049
      32.5000     0.0989746
      32.6000     0.0969835
      32.7000     0.0950066
      32.8000     0.0930704
      32.9000     0.0911725
      33.0000     0.0892859
      33.1000     0.0875089
      33.2000     0.0857582
      33.3000     0.0840309
      33.4000     0.0823500
      33.5000     0.0806801
      33.6000     0.0790501
      33.7000     0.0774508
      33.8000     0.0758606
      33.9000     0.0743228
      34.0000     0.0727998
      34.1000     0.0713040
      34.2000     0.0698507
      34.3000     0.0684054
      34.4000     0.0669885
      34.5000     0.0656055
      34.6000     0.0642302
      34.7000     0.0628861
      34.8000     0.0615605
      34.9000     0.0602422
      35.0000     0.0589722
      35.1000     0.0577135
      35.2000     0.0564700
      35.3000     0.0553014
      35.4000     0.0541393
      35.5000     0.0529952
      35.6000     0.0518858
      35.7000     0.0507826
      35.8000     0.0497028
      35.9000     0.0486506
      36.0000     0.0476042
      36.1000     0.0465856
      36.2000     0.0455887
      36.3000     0.0445974
      36.4000     0.0436366
      36.5000     0.0426924
      36.6000     0.0417536
      36.7000     0.0408476
      36.8000     0.0399547
      36.9000     0.0390669
      37.0000     0.0382129
      37.1000     0.0373692
      37.2000     0.0365304
      37.3000     0.0357256
      37.4000     0.0349294
      37.5000     0.0341378
      37.6000     0.0333793
      37.7000     0.0326283
      37.8000     0.0318817
      37.9000     0.0311670
      38.0000     0.0304599
      38.1000     0.0297569
      38.2000     0.0290834
      38.3000     0.0284179
      38.4000     0.0277563
      38.5000     0.0271215
      38.6000     0.0264960
      38.7000     0.0258741
      38.8000     0.0252758
      38.9000     0.0246885
      39.0000     0.0241046
      39.1000     0.0235406
      39.2000     0.0229899
      39.3000     0.0224424
      39.4000     0.0219105
      39.5000     0.0213945
      39.6000     0.0208816
      39.7000     0.0203799
      39.8000     0.0198972
      39.9000     0.0194174
      40.0000     0.0189443
      40.1000     0.0184939
      40.2000     0.0180461
      40.3000     0.0176011
      40.4000     0.0171796
      40.5000     0.0167616
      40.6000     0.0163462
      40.7000     0.0159483
      40.8000     0.0155586
      40.9000     0.0151712
      41.0000     0.0147954
      41.1000     0.0144324
      41.2000     0.0140716
      41.3000     0.0137167
      41.4000     0.0133795
      41.5000     0.0130443
      41.6000     0.0127112
      41.7000     0.0123956
      41.8000     0.0120842
      41.9000     0.0117747
      42.0000     0.0114765
      42.1000     0.0111878
      42.2000     0.0109009
      42.3000     0.0106186
      42.4000     0.0103511
      42.5000     0.0100852
      42.6000    0.00982103
      42.7000    0.00957017
      42.8000    0.00932399
      42.9000    0.00907930
      43.0000    0.00884145
      43.1000    0.00861395
      43.2000    0.00838786
      43.3000    0.00816317
      43.4000     0.0248928
      43.5000     0.0457754
      43.6000     0.0726090
      43.7000     0.0962298
      43.8000      0.106530
      43.9000      0.107840
      44.0000      0.105812
      44.1000      0.100647
      44.2000     0.0989747
      44.3000     0.0976088
      44.4000     0.0962638
      44.5000     0.0949454
      44.6000     0.0936305
      44.7000     0.0923189
      44.8000     0.0910492
      44.9000     0.0897884
      45.0000     0.0885308
      45.1000     0.0872881
      45.2000     0.0860763
      45.3000     0.0848678
      45.4000     0.0836623
      45.5000     0.0824864
      45.6000     0.0813259
      45.7000     0.0801685
      45.8000     0.0790153
      45.9000     0.0779016
      46.0000     0.0767906
      46.1000     0.0756825
      46.2000     0.0746242
      46.3000     0.0736494
      46.4000     0.0726772
      46.5000     0.0717075
      46.6000     0.0707729
      46.7000     0.0698570
      46.8000     0.0689435
      46.9000     0.0680322
      47.0000     0.0671690
      47.1000     0.0663111
      47.2000     0.0654553
      47.3000     0.0646072
      47.4000     0.0637869
      47.5000     0.0629687
      47.6000     0.0621527
      47.7000     0.0613522
      47.8000     0.0605756
      47.9000     0.0598008
      48.0000     0.0590281
      48.1000     0.0582728
      48.2000     0.0575312
      48.3000     0.0567915
      48.4000     0.0560536
      48.5000     0.0553423
      48.6000     0.0546425
      48.7000     0.0539445
      48.8000     0.0532481
      48.9000     0.0525750
      49.0000     0.0519079
      49.1000     0.0512424
      49.2000     0.0505786
      49.3000     0.0499375
      49.4000     0.0492997
      49.5000     0.0486635
      49.6000     0.0480288
      49.7000     0.0474169
      49.8000     0.0468069
      49.9000     0.0461985
      50.0000     0.0455922
      50.1000     0.0450047
      50.2000     0.0444308
      50.3000     0.0438636
      50.4000     0.0433026
      50.5000     0.0427476
      50.6000     0.0421992
      50.7000     0.0416573
      50.8000     0.0411216
      50.9000     0.0405925
      51.0000     0.0400699
      51.1000     0.0395538
      51.2000     0.0390433
      51.3000     0.0385397
      51.4000     0.0380427
      51.5000     0.0375501
      51.6000     0.0370628
      51.7000     0.0365805
      51.8000     0.0360988
      51.9000     0.0356223
      52.0000     0.0351507
      52.1000     0.0346848
      52.2000     0.0342239
      52.3000     0.0337677
      52.4000     0.0333184
      52.5000     0.0328742
      52.6000     0.0324248
      52.7000     0.0319703
      52.8000     0.0315207
      52.9000     0.0310773
      53.0000     0.0306399
      53.1000     0.0302073
      53.2000     0.0297806
      53.3000     0.0293591
      53.4000     0.0289422
      53.5000     0.0285308
      53.6000     0.0281245
      53.7000     0.0277228
      53.8000     0.0273262
      53.9000     0.0269345
      54.0000     0.0265480
      54.1000     0.0261675
      54.2000     0.0257914
      54.3000     0.0254191
      54.4000     0.0250518
      54.5000     0.0246889
      54.6000     0.0243307
      54.7000     0.0239782
      54.8000     0.0236303
      54.9000     0.0232863
      55.0000     0.0229468
      55.1000     0.0226109
      55.2000     0.0222691
      55.3000     0.0219232
      55.4000     0.0215820
      55.5000     0.0212448
      55.6000     0.0209124
      55.7000     0.0205845
      55.8000     0.0202608
      55.9000     0.0199419
      56.0000     0.0196304
      56.1000     0.0193195
      56.2000     0.0190092
      56.3000     0.0187036
      56.4000     0.0184018
      56.5000     0.0181043
      56.6000     0.0178113
      56.7000     0.0175226
      56.8000     0.0172377
      56.9000     0.0169574
      57.0000     0.0166879
      57.1000     0.0164264
      57.2000     0.0161685
      57.3000     0.0159139
      57.4000     0.0156628
      57.5000     0.0154151
      57.6000     0.0151708
      57.7000     0.0149298
      57.8000     0.0146927
      57.9000     0.0144593
      58.0000     0.0142291
      58.1000     0.0140015
      58.2000     0.0137773
      58.3000     0.0135563
      58.4000     0.0133383
      58.5000     0.0131235
      58.6000     0.0129122
      58.7000     0.0127039
      58.8000     0.0124983
      58.9000     0.0122956
      59.0000     0.0120958
      59.1000     0.0118989
      59.2000     0.0117049
      59.3000     0.0115139
      59.4000     0.0113256
      59.5000     0.0111401
      59.6000     0.0109573
      59.7000     0.0107771
      59.8000     0.0105994
      59.9000     0.0104241
      60.0000     0.0102519
      60.1000     0.0100820
      60.2000    0.00991465
      60.3000    0.00974982
      60.4000    0.00958752
      60.5000    0.00942777
      60.6000    0.00927014
      60.7000    0.00911465
      60.8000    0.00896138
      60.9000    0.00881023
      61.0000    0.00866148
      61.1000    0.00851521
      61.2000    0.00837116
      61.3000    0.00822926
      61.4000    0.00808953
      61.5000    0.00795193
      61.6000    0.00781630
      61.7000    0.00768312
      61.8000    0.00755427
      61.9000    0.00742819
      62.0000    0.00730398
      62.1000    0.00718161
      62.2000    0.00706129
      62.3000    0.00694277
      62.4000    0.00682591
      62.5000    0.00671076
      62.6000    0.00659733
      62.7000    0.00648604
      62.8000    0.00638148
      62.9000    0.00627859
      63.0000    0.00617726
      63.1000    0.00607742
      63.2000    0.00597894
      63.3000    0.00588182
      63.4000    0.00578617
      63.5000    0.00569204
      63.6000    0.00559922
      63.7000    0.00550773
      63.8000    0.00541769
      63.9000    0.00532905
      64.0000    0.00524172
      64.1000    0.00515569
      64.2000    0.00507107
      64.3000    0.00498776
      64.4000    0.00490562
      64.5000    0.00482459
      64.6000    0.00474472
      64.7000    0.00466601
      64.8000    0.00458847
      64.9000    0.00451208
      65.0000    0.00443691
      65.1000    0.00436305
      65.2000    0.00429034
      65.3000    0.00421866
      65.4000    0.00414800
      65.5000    0.00407836
      65.6000    0.00400970
      65.7000    0.00394212
      65.8000    0.00387563
      65.9000    0.00381024
      66.0000    0.00374595
      66.1000    0.00368270
      66.2000    0.00362039
      66.3000    0.00355903
      66.4000    0.00349858
      66.5000    0.00343902
      66.6000    0.00338033
      66.7000    0.00332257
      66.8000    0.00326580
      66.9000    0.00321033
      67.0000    0.00315606
      67.1000    0.00310266
      67.2000    0.00305010
      67.3000    0.00299838
      67.4000    0.00294744
      67.5000    0.00289725
      67.6000    0.00284783
      67.7000    0.00279920
      67.8000    0.00275127
      67.9000    0.00270390
      68.0000    0.00265725
      68.1000    0.00261143
      68.2000    0.00256632
      68.3000    0.00252193
      68.4000    0.00247825
      68.5000    0.00243527
      68.6000    0.00239300
      68.7000    0.00235142
      68.8000    0.00231049
      68.9000    0.00227079
      69.0000    0.00223489
      69.1000    0.00220247
      69.2000    0.00217104
      69.3000    0.00214042
      69.4000    0.00211101
      69.5000    0.00208106
      69.6000    0.00205024
      69.7000    0.00202067
      69.8000    0.00199254
      69.9000    0.00196479
      70.0000    0.00193735
      70.1000    0.00190973
      70.2000    0.00188346
      70.3000    0.00185855
      70.4000    0.00183373
      70.5000    0.00180956
      70.6000    0.00178598
      70.7000    0.00176273
      70.8000    0.00173973
      70.9000    0.00171619
      71.0000    0.00169221
      71.1000    0.00166933
      71.2000    0.00164755
      71.3000    0.00162447
      71.4000    0.00159981
      71.5000    0.00157709
      71.6000    0.00155718
      71.7000    0.00153713
      71.8000    0.00151644
      71.9000    0.00149646
      72.0000    0.00147798
