Filter Ti-poly
observation_date 22-Sept-2013 22:40:45
wavelength effective area 
      1.00000   2.76777e-10
      1.10000   7.88641e-10
      1.20000   2.04570e-09
      1.30000   4.87937e-09
      1.40000   1.10401e-08
      1.50000   2.34775e-08
      1.60000   4.73592e-08
      1.70000   9.15829e-08
      1.80000   1.69779e-07
      1.90000   3.03746e-07
      2.00000   5.25463e-07
      2.10000   8.82876e-07
      2.20000   1.44765e-06
      2.30000   2.31344e-06
      2.40000   3.60964e-06
      2.50000   5.78554e-06
      2.60000   8.95696e-06
      2.70000   1.33536e-05
      2.80000   1.95279e-05
      2.90000   2.82636e-05
      3.00000   4.02692e-05
      3.10000   5.66376e-05
      3.20000   7.87904e-05
      3.30000   0.000108494
      3.40000   0.000147841
      3.50000   0.000199511
      3.60000   0.000268002
      3.70000   0.000356188
      3.80000   0.000471436
      3.90000   0.000620519
      4.00000   0.000811675
      4.10000    0.00105681
      4.20000    0.00137108
      4.30000    0.00177378
      4.40000    0.00228867
      4.50000    0.00294495
      4.60000    0.00377674
      4.70000    0.00484337
      4.80000    0.00620498
      4.90000    0.00784724
      5.00000     0.0101856
      5.10000     0.0130346
      5.20000     0.0167300
      5.30000     0.0212919
      5.40000     0.0270544
      5.50000     0.0344370
      5.60000     0.0424901
      5.70000     0.0552329
      5.80000     0.0647535
      5.90000     0.0988701
      6.00000      0.132908
      6.10000      0.169871
      6.20000      0.208603
      6.30000      0.245546
      6.40000      0.277246
      6.50000      0.300586
      6.60000      0.311146
      6.70000      0.320855
      6.80000      0.321290
      6.90000      0.421519
      7.00000      0.458407
      7.10000      0.484812
      7.20000      0.505787
      7.30000      0.522892
      7.40000      0.535946
      7.50000      0.546333
      7.60000      0.554162
      7.70000      0.557966
      7.80000      0.556665
      7.90000      0.556026
      8.00000      0.803899
      8.10000      0.879744
      8.20000      0.893733
      8.30000      0.903633
      8.40000      0.910052
      8.50000      0.915022
      8.60000      0.918262
      8.70000      0.920375
      8.80000      0.921061
      8.90000      0.920785
      9.00000      0.919481
      9.10000      0.917200
      9.20000      0.914125
      9.30000      0.910176
      9.40000      0.905497
      9.50000      0.900147
      9.60000      0.894079
      9.70000      0.887398
      9.80000      0.880254
      9.90000      0.872675
      10.0000      0.864722
      10.1000      0.856405
      10.2000      0.847750
      10.3000      0.838703
      10.4000      0.829290
      10.5000      0.819537
      10.6000      0.809484
      10.7000      0.799154
      10.8000      0.788556
      10.9000      0.777724
      11.0000      0.766672
      11.1000      0.755432
      11.2000      0.744011
      11.3000      0.732441
      11.4000      0.720717
      11.5000      0.708842
      11.6000      0.696835
      11.7000      0.684643
      11.8000      0.672348
      11.9000      0.659867
      12.0000      0.646521
      12.1000      0.635530
      12.2000      0.635666
      12.3000      0.629080
      12.4000      0.617845
      12.5000      0.606226
      12.6000      0.594471
      12.7000      0.582678
      12.8000      0.570884
      12.9000      0.559102
      13.0000      0.547373
      13.1000      0.535728
      13.2000      0.524182
      13.3000      0.512750
      13.4000      0.501449
      13.5000      0.490409
      13.6000      0.479606
      13.7000      0.468929
      13.8000      0.458371
      13.9000      0.447955
      14.0000      0.437677
      14.1000      0.427523
      14.2000      0.417495
      14.3000      0.407590
      14.4000      0.397798
      14.5000      0.388132
      14.6000      0.378594
      14.7000      0.369176
      14.8000      0.359881
      14.9000      0.350711
      15.0000      0.341671
      15.1000      0.332765
      15.2000      0.324020
      15.3000      0.315418
      15.4000      0.306954
      15.5000      0.298631
      15.6000      0.290465
      15.7000      0.282454
      15.8000      0.274635
      15.9000      0.266979
      16.0000      0.259483
      16.1000      0.252150
      16.2000      0.245017
      16.3000      0.238035
      16.4000      0.231190
      16.5000      0.224478
      16.6000      0.217913
      16.7000      0.211498
      16.8000      0.205206
      16.9000      0.199035
      17.0000      0.193008
      17.1000      0.187123
      17.2000      0.181351
      17.3000      0.175699
      17.4000      0.170292
      17.5000      0.165095
      17.6000      0.160080
      17.7000      0.155273
      17.8000      0.150766
      17.9000      0.146358
      18.0000      0.142017
      18.1000      0.137788
      18.2000      0.133599
      18.3000      0.129442
      18.4000      0.125310
      18.5000      0.121210
      18.6000      0.117130
      18.7000      0.113055
      18.8000      0.109092
      18.9000      0.105211
      19.0000      0.101446
      19.1000     0.0978031
      19.2000     0.0942487
      19.3000     0.0908359
      19.4000     0.0875368
      19.5000     0.0843227
      19.6000     0.0812710
      19.7000     0.0783036
      19.8000     0.0754123
      19.9000     0.0726638
      20.0000     0.0699739
      20.1000     0.0673645
      20.2000     0.0648430
      20.3000     0.0623720
      20.4000     0.0599973
      20.5000     0.0576807
      20.6000     0.0554169
      20.7000     0.0532461
      20.8000     0.0511158
      20.9000     0.0490582
      21.0000     0.0471568
      21.1000     0.0453755
      21.2000     0.0439533
      21.3000     0.0426343
      21.4000     0.0415390
      21.5000     0.0406959
      21.6000     0.0401068
      21.7000     0.0394885
      21.8000     0.0388599
      21.9000     0.0381498
      22.0000     0.0373901
      22.1000     0.0365081
      22.2000     0.0354085
      22.3000     0.0341213
      22.4000     0.0321456
      22.5000     0.0299604
      22.6000     0.0252369
      22.7000     0.0223076
      22.8000     0.0285323
      22.9000     0.0363702
      23.0000     0.0455981
      23.1000     0.0511999
      23.2000     0.0533645
      23.3000     0.0531935
      23.4000     0.0518505
      23.5000     0.0504761
      23.6000     0.0490989
      23.7000     0.0476367
      23.8000     0.0461754
      23.9000     0.0447522
      24.0000     0.0433378
      24.1000     0.0419444
      24.2000     0.0405678
      24.3000     0.0392369
      24.4000     0.0379239
      24.5000     0.0366487
      24.6000     0.0353968
      24.7000     0.0341883
      24.8000     0.0330032
      24.9000     0.0318569
      25.0000     0.0307356
      25.1000     0.0296545
      25.2000     0.0285967
      25.3000     0.0275767
      25.4000     0.0265795
      25.5000     0.0256218
      25.6000     0.0246847
      25.7000     0.0237875
      25.8000     0.0229072
      25.9000     0.0220672
      26.0000     0.0212400
      26.1000     0.0204535
      26.2000     0.0196759
      26.3000     0.0189418
      26.4000     0.0182119
      26.5000     0.0175264
      26.6000     0.0168444
      26.7000     0.0162022
      26.8000     0.0155683
      26.9000     0.0149653
      27.0000     0.0143740
      27.1000     0.0138050
      27.2000     0.0132511
      27.3000     0.0571355
      27.4000      0.156358
      27.5000      0.228577
      27.6000      0.224858
      27.7000      0.221150
      27.8000      0.217363
      27.9000      0.213594
      28.0000      0.209895
      28.1000      0.206225
      28.2000      0.202613
      28.3000      0.199046
      28.4000      0.195521
      28.5000      0.192060
      28.6000      0.188623
      28.7000      0.185296
      28.8000      0.181984
      28.9000      0.178740
      29.0000      0.175526
      29.1000      0.172356
      29.2000      0.169235
      29.3000      0.166139
      29.4000      0.163114
      29.5000      0.160104
      29.6000      0.157160
      29.7000      0.154244
      29.8000      0.151370
      29.9000      0.148548
      30.0000      0.145742
      30.1000      0.143011
      30.2000      0.140294
      30.3000      0.143039
      30.4000      0.148885
      30.5000      0.152880
      30.6000      0.150110
      30.7000      0.147354
      30.8000      0.144661
      30.9000      0.141996
      31.0000      0.139365
      31.1000      0.136793
      31.2000      0.134235
      31.3000      0.131742
      31.4000      0.129272
      31.5000      0.126839
      31.6000      0.124469
      31.7000      0.122111
      31.8000      0.119809
      31.9000      0.117530
      32.0000      0.115261
      32.1000      0.112999
      32.2000      0.110749
      32.3000      0.108554
      32.4000      0.106391
      32.5000      0.104248
      32.6000      0.102190
      32.7000      0.100145
      32.8000     0.0981415
      32.9000     0.0961774
      33.0000     0.0942237
      33.1000     0.0923827
      33.2000     0.0905674
      33.3000     0.0887752
      33.4000     0.0870315
      33.5000     0.0852983
      33.6000     0.0836060
      33.7000     0.0819450
      33.8000     0.0802925
      33.9000     0.0786943
      34.0000     0.0771107
      34.1000     0.0755547
      34.2000     0.0740429
      34.3000     0.0725385
      34.4000     0.0710630
      34.5000     0.0696226
      34.6000     0.0681893
      34.7000     0.0667881
      34.8000     0.0654055
      34.9000     0.0640298
      35.0000     0.0627044
      35.1000     0.0613900
      35.2000     0.0600910
      35.3000     0.0588705
      35.4000     0.0576561
      35.5000     0.0564601
      35.6000     0.0553001
      35.7000     0.0541460
      35.8000     0.0530159
      35.9000     0.0519145
      36.0000     0.0508185
      36.1000     0.0497513
      36.2000     0.0487064
      36.3000     0.0476667
      36.4000     0.0466588
      36.5000     0.0456679
      36.6000     0.0446821
      36.7000     0.0437306
      36.8000     0.0427924
      36.9000     0.0418590
      37.0000     0.0409610
      37.1000     0.0400735
      37.2000     0.0391904
      37.3000     0.0383432
      37.4000     0.0375045
      37.5000     0.0366701
      37.6000     0.0358706
      37.7000     0.0350785
      37.8000     0.0342906
      37.9000     0.0335363
      38.0000     0.0327895
      38.1000     0.0320466
      38.2000     0.0313348
      38.3000     0.0306311
      38.4000     0.0299311
      38.5000     0.0292594
      38.6000     0.0285971
      38.7000     0.0279383
      38.8000     0.0273044
      38.9000     0.0266818
      39.0000     0.0260624
      39.1000     0.0254639
      39.2000     0.0248793
      39.3000     0.0242977
      39.4000     0.0237326
      39.5000     0.0231841
      39.6000     0.0226386
      39.7000     0.0221048
      39.8000     0.0215911
      39.9000     0.0210801
      40.0000     0.0205759
      40.1000     0.0200959
      40.2000     0.0196185
      40.3000     0.0191435
      40.4000     0.0186938
      40.5000     0.0182475
      40.6000     0.0178035
      40.7000     0.0173784
      40.8000     0.0169617
      40.9000     0.0165472
      41.0000     0.0161450
      41.1000     0.0157563
      41.2000     0.0153696
      41.3000     0.0149892
      41.4000     0.0146277
      41.5000     0.0142681
      41.6000     0.0139105
      41.7000     0.0135717
      41.8000     0.0132371
      41.9000     0.0129044
      42.0000     0.0125837
      42.1000     0.0122732
      42.2000     0.0119643
      42.3000     0.0116602
      42.4000     0.0113721
      42.5000     0.0110855
      42.6000     0.0108004
      42.7000     0.0105298
      42.8000     0.0102640
      42.9000    0.00999967
      43.0000    0.00974260
      43.1000    0.00949669
      43.2000    0.00925211
      43.3000    0.00900882
      43.4000     0.0274855
      43.5000     0.0497364
      43.6000     0.0768428
      43.7000     0.0987557
      43.8000      0.106767
      43.9000      0.107530
      44.0000      0.105619
      44.1000      0.101200
      44.2000     0.0995833
      44.3000     0.0982131
      44.4000     0.0968639
      44.5000     0.0955413
      44.6000     0.0942221
      44.7000     0.0929062
      44.8000     0.0916324
      44.9000     0.0903674
      45.0000     0.0891055
      45.1000     0.0878585
      45.2000     0.0866425
      45.3000     0.0854297
      45.4000     0.0842198
      45.5000     0.0830397
      45.6000     0.0818750
      45.7000     0.0807134
      45.8000     0.0795560
      45.9000     0.0784382
      46.0000     0.0773230
      46.1000     0.0762108
      46.2000     0.0751485
      46.3000     0.0741703
      46.4000     0.0731946
      46.5000     0.0722213
      46.6000     0.0712833
      46.7000     0.0703640
      46.8000     0.0694470
      46.9000     0.0685323
      47.0000     0.0676659
      47.1000     0.0668048
      47.2000     0.0659458
      47.3000     0.0650944
      47.4000     0.0642711
      47.5000     0.0634497
      47.6000     0.0626304
      47.7000     0.0618268
      47.8000     0.0610471
      47.9000     0.0602692
      48.0000     0.0594933
      48.1000     0.0587349
      48.2000     0.0579903
      48.3000     0.0572475
      48.4000     0.0565065
      48.5000     0.0557923
      48.6000     0.0550896
      48.7000     0.0543887
      48.8000     0.0536894
      48.9000     0.0530135
      49.0000     0.0523435
      49.1000     0.0516751
      49.2000     0.0510084
      49.3000     0.0503644
      49.4000     0.0497237
      49.5000     0.0490845
      49.6000     0.0484469
      49.7000     0.0478321
      49.8000     0.0472192
      49.9000     0.0466078
      50.0000     0.0459986
      50.1000     0.0454082
      50.2000     0.0448313
      50.3000     0.0442611
      50.4000     0.0436972
      50.5000     0.0431392
      50.6000     0.0425879
      50.7000     0.0420431
      50.8000     0.0415045
      50.9000     0.0409725
      51.0000     0.0404469
      51.1000     0.0399277
      51.2000     0.0394143
      51.3000     0.0389077
      51.4000     0.0384078
      51.5000     0.0379122
      51.6000     0.0374220
      51.7000     0.0369368
      51.8000     0.0364522
      51.9000     0.0359728
      52.0000     0.0354984
      52.1000     0.0350297
      52.2000     0.0345660
      52.3000     0.0341070
      52.4000     0.0336549
      52.5000     0.0332079
      52.6000     0.0327556
      52.7000     0.0322981
      52.8000     0.0318455
      52.9000     0.0313992
      53.0000     0.0309589
      53.1000     0.0305233
      53.2000     0.0300938
      53.3000     0.0296694
      53.4000     0.0292496
      53.5000     0.0288354
      53.6000     0.0284264
      53.7000     0.0280219
      53.8000     0.0276226
      53.9000     0.0272281
      54.0000     0.0268390
      54.1000     0.0264558
      54.2000     0.0260770
      54.3000     0.0257021
      54.4000     0.0253320
      54.5000     0.0249665
      54.6000     0.0246056
      54.7000     0.0242504
      54.8000     0.0238998
      54.9000     0.0235533
      55.0000     0.0232111
      55.1000     0.0228726
      55.2000     0.0225280
      55.3000     0.0221793
      55.4000     0.0218354
      55.5000     0.0214954
      55.6000     0.0211602
      55.7000     0.0208297
      55.8000     0.0205033
      55.9000     0.0201818
      56.0000     0.0198678
      56.1000     0.0195542
      56.2000     0.0192414
      56.3000     0.0189331
      56.4000     0.0186288
      56.5000     0.0183287
      56.6000     0.0180332
      56.7000     0.0177421
      56.8000     0.0174547
      56.9000     0.0171719
      57.0000     0.0168999
      57.1000     0.0166361
      57.2000     0.0163759
      57.3000     0.0161192
      57.4000     0.0158658
      57.5000     0.0156158
      57.6000     0.0153693
      57.7000     0.0151261
      57.8000     0.0148868
      57.9000     0.0146513
      58.0000     0.0144189
      58.1000     0.0141893
      58.2000     0.0139630
      58.3000     0.0137399
      58.4000     0.0135198
      58.5000     0.0133030
      58.6000     0.0130896
      58.7000     0.0128793
      58.8000     0.0126717
      58.9000     0.0124670
      59.0000     0.0122652
      59.1000     0.0120663
      59.2000     0.0118703
      59.3000     0.0116773
      59.4000     0.0114871
      59.5000     0.0112997
      59.6000     0.0111150
      59.7000     0.0109330
      59.8000     0.0107534
      59.9000     0.0105763
      60.0000     0.0104023
      60.1000     0.0102307
      60.2000     0.0100615
      60.3000    0.00989494
      60.4000    0.00973093
      60.5000    0.00956947
      60.6000    0.00941015
      60.7000    0.00925298
      60.8000    0.00909804
      60.9000    0.00894521
      61.0000    0.00879481
      61.1000    0.00864690
      61.2000    0.00850122
      61.3000    0.00835770
      61.4000    0.00821636
      61.5000    0.00807715
      61.6000    0.00793993
      61.7000    0.00780518
      61.8000    0.00767482
      61.9000    0.00754724
      62.0000    0.00742155
      62.1000    0.00729772
      62.2000    0.00717595
      62.3000    0.00705601
      62.4000    0.00693774
      62.5000    0.00682119
      62.6000    0.00670639
      62.7000    0.00659374
      62.8000    0.00648793
      62.9000    0.00638381
      63.0000    0.00628126
      63.1000    0.00618020
      63.2000    0.00608052
      63.3000    0.00598222
      63.4000    0.00588539
      63.5000    0.00579008
      63.6000    0.00569610
      63.7000    0.00560345
      63.8000    0.00551227
      63.9000    0.00542250
      64.0000    0.00533404
      64.1000    0.00524690
      64.2000    0.00516117
      64.3000    0.00507677
      64.4000    0.00499354
      64.5000    0.00491144
      64.6000    0.00483050
      64.7000    0.00475074
      64.8000    0.00467215
      64.9000    0.00459473
      65.0000    0.00451853
      65.1000    0.00444367
      65.2000    0.00436996
      65.3000    0.00429729
      65.4000    0.00422566
      65.5000    0.00415505
      65.6000    0.00408543
      65.7000    0.00401690
      65.8000    0.00394947
      65.9000    0.00388315
      66.0000    0.00381794
      66.1000    0.00375378
      66.2000    0.00369057
      66.3000    0.00362830
      66.4000    0.00356696
      66.5000    0.00350652
      66.6000    0.00344695
      66.7000    0.00338832
      66.8000    0.00333069
      66.9000    0.00327437
      67.0000    0.00321925
      67.1000    0.00316501
      67.2000    0.00311161
      67.3000    0.00305907
      67.4000    0.00300731
      67.5000    0.00295632
      67.6000    0.00290611
      67.7000    0.00285670
      67.8000    0.00280799
      67.9000    0.00275985
      68.0000    0.00271245
      68.1000    0.00266586
      68.2000    0.00262000
      68.3000    0.00257488
      68.4000    0.00253046
      68.5000    0.00248676
      68.6000    0.00244378
      68.7000    0.00240150
      68.8000    0.00235987
      68.9000    0.00231950
      69.0000    0.00228300
      69.1000    0.00225006
      69.2000    0.00221810
      69.3000    0.00218698
      69.4000    0.00215708
      69.5000    0.00212663
      69.6000    0.00209528
      69.7000    0.00206520
      69.8000    0.00203659
      69.9000    0.00200837
      70.0000    0.00198045
      70.1000    0.00195234
      70.2000    0.00192562
      70.3000    0.00190028
      70.4000    0.00187502
      70.5000    0.00185043
      70.6000    0.00182645
      70.7000    0.00180279
      70.8000    0.00177938
      70.9000    0.00175543
      71.0000    0.00173102
      71.1000    0.00170773
      71.2000    0.00168556
      71.3000    0.00166207
      71.4000    0.00163696
      71.5000    0.00161383
      71.6000    0.00159356
      71.7000    0.00157317
      71.8000    0.00155210
      71.9000    0.00153177
      72.0000    0.00151296
