Filter Be-med
observation_date 22-Sept-2010 22:40:45
wavelength effective area 
      1.00000   2.78116e-10
      1.10000   7.93782e-10
      1.20000   2.06300e-09
      1.30000   4.93144e-09
      1.40000   1.11853e-08
      1.50000   2.38512e-08
      1.60000   4.82569e-08
      1.70000   9.36224e-08
      1.80000   1.74166e-07
      1.90000   3.12754e-07
      2.00000   5.43178e-07
      2.10000   9.16426e-07
      2.20000   1.50918e-06
      2.30000   2.42259e-06
      2.40000   3.79740e-06
      2.50000   5.79349e-06
      2.60000   8.82472e-06
      2.70000   1.31296e-05
      2.80000   1.91575e-05
      2.90000   2.76594e-05
      3.00000   3.93035e-05
      3.10000   5.51218e-05
      3.20000   7.64464e-05
      3.30000   0.000104918
      3.40000   0.000142460
      3.50000   0.000191517
      3.60000   0.000256208
      3.70000   0.000339030
      3.80000   0.000446631
      3.90000   0.000584948
      4.00000   0.000761113
      4.10000   0.000985451
      4.20000    0.00127112
      4.30000    0.00163445
      4.40000    0.00209533
      4.50000    0.00267793
      4.60000    0.00340997
      4.70000    0.00434033
      4.80000    0.00551668
      4.90000    0.00691979
      5.00000    0.00890378
      5.10000     0.0112922
      5.20000     0.0143558
      5.30000     0.0180915
      5.40000     0.0227504
      5.50000     0.0286471
      5.60000     0.0349527
      5.70000     0.0449103
      5.80000     0.0520042
      5.90000     0.0784009
      6.00000      0.104015
      6.10000      0.131138
      6.20000      0.158814
      6.30000      0.184285
      6.40000      0.205021
      6.50000      0.218907
      6.60000      0.223046
      6.70000      0.226202
      6.80000      0.222741
      6.90000      0.287180
      7.00000      0.306729
      7.10000      0.318415
      7.20000      0.325874
      7.30000      0.330280
      7.40000      0.331662
      7.50000      0.331042
      7.60000      0.328582
      7.70000      0.323540
      7.80000      0.315471
      7.90000      0.307739
      8.00000      0.434113
      8.10000      0.463526
      8.20000      0.459085
      8.30000      0.452438
      8.40000      0.443798
      8.50000      0.434297
      8.60000      0.423905
      8.70000      0.412944
      8.80000      0.401385
      8.90000      0.389447
      9.00000      0.377178
      9.10000      0.364652
      9.20000      0.351960
      9.30000      0.339167
      9.40000      0.326312
      9.50000      0.313441
      9.60000      0.300639
      9.70000      0.287910
      9.80000      0.275311
      9.90000      0.262912
      10.0000      0.250743
      10.1000      0.238796
      10.2000      0.227095
      10.3000      0.215679
      10.4000      0.204569
      10.5000      0.193753
      10.6000      0.183245
      10.7000      0.173058
      10.8000      0.163217
      10.9000      0.153750
      11.0000      0.144628
      11.1000      0.135858
      11.2000      0.127441
      11.3000      0.119379
      11.4000      0.111667
      11.5000      0.104303
      11.6000     0.0972832
      11.7000     0.0906181
      11.8000     0.0842858
      11.9000     0.0782647
      12.0000     0.0724782
      12.1000     0.0672429
      12.2000     0.0634381
      12.3000     0.0591602
      12.4000     0.0546912
      12.5000     0.0504579
      12.6000     0.0464758
      12.7000     0.0427442
      12.8000     0.0392544
      12.9000     0.0359956
      13.0000     0.0329594
      13.1000     0.0301358
      13.2000     0.0275181
      13.3000     0.0251083
      13.4000     0.0228877
      13.5000     0.0208364
      13.6000     0.0189559
      13.7000     0.0172222
      13.8000     0.0156255
      13.9000     0.0141572
      14.0000     0.0128086
      14.1000     0.0115693
      14.2000     0.0104311
      14.3000    0.00938798
      14.4000    0.00843455
      14.5000    0.00756951
      14.6000    0.00678921
      14.7000    0.00607877
      14.8000    0.00543281
      14.9000    0.00484626
      15.0000    0.00431448
      15.1000    0.00383322
      15.2000    0.00340722
      15.3000    0.00302403
      15.4000    0.00267825
      15.5000    0.00236670
      15.6000    0.00208657
      15.7000    0.00183867
      15.8000    0.00162033
      15.9000    0.00142439
      16.0000    0.00124885
      16.1000    0.00109191
      16.2000   0.000956055
      16.3000   0.000836010
      16.4000   0.000728783
      16.5000   0.000633232
      16.6000   0.000550152
      16.7000   0.000478301
      16.8000   0.000414307
      16.9000   0.000357489
      17.0000   0.000308599
      17.1000   0.000266787
      17.2000   0.000229825
      17.3000   0.000197276
      17.4000   0.000169996
      17.5000   0.000146171
      17.6000   0.000125195
      17.7000   0.000107347
      17.8000   9.28673e-05
      17.9000   7.99946e-05
      18.0000   6.85481e-05
      18.1000   5.91132e-05
      18.2000   5.06588e-05
      18.3000   4.30468e-05
      18.4000   3.65585e-05
      18.5000   3.09186e-05
      18.6000   2.58795e-05
      18.7000   2.16294e-05
      18.8000   1.80698e-05
      18.9000   1.49487e-05
      19.0000   1.24200e-05
      19.1000   1.03135e-05
      19.2000   8.46971e-06
      19.3000   7.00766e-06
      19.4000   5.78998e-06
      19.5000   4.73661e-06
      19.6000   3.94907e-06
      19.7000   3.26516e-06
      19.8000   2.67318e-06
      19.9000   2.22279e-06
      20.0000   1.82172e-06
      20.1000   1.49262e-06
      20.2000   1.22953e-06
      20.3000   9.96925e-07
      20.4000   8.19051e-07
      20.5000   6.66968e-07
      20.6000   5.37882e-07
      20.7000   4.40683e-07
      20.8000   3.53945e-07
      20.9000   2.87335e-07
      21.0000   2.31850e-07
      21.1000   1.84722e-07
      21.2000   1.50006e-07
      21.3000   1.18882e-07
      21.4000   9.57764e-08
      21.5000   7.62248e-08
      21.6000   6.02758e-08
      21.7000   4.82317e-08
      21.8000   3.74918e-08
      21.9000   3.00795e-08
      22.0000   2.34126e-08
      22.1000   1.84763e-08
      22.2000   1.44342e-08
      22.3000   1.11696e-08
      22.4000   8.64674e-09
      22.5000   6.36542e-09
      22.6000   4.58555e-09
      22.7000   3.10137e-09
      22.8000   2.96811e-09
      22.9000   2.93727e-09
      23.0000   2.98770e-09
      23.1000   2.78601e-09
      23.2000   2.34972e-09
      23.3000   1.91997e-09
      23.4000   1.49429e-09
      23.5000   1.18803e-09
      23.6000   9.11473e-10
      23.7000   7.25749e-10
      23.8000   5.50045e-10
      23.9000   4.37797e-10
      24.0000   3.31315e-10
      24.1000   2.61543e-10
      24.2000   1.97495e-10
      24.3000   1.54780e-10
      24.4000   1.16658e-10
      24.5000   9.08058e-11
      24.6000   6.82634e-11
      24.7000   5.28268e-11
      24.8000   3.95925e-11
      24.9000   3.04853e-11
      25.0000   2.27567e-11
      25.1000   1.74530e-11
      25.2000   1.29635e-11
      25.3000   9.91302e-12
      25.4000   7.31707e-12
      25.5000   5.58596e-12
      25.6000   4.09233e-12
      25.7000   3.12279e-12
      25.8000   2.26731e-12
      25.9000   1.73155e-12
      26.0000   1.24400e-12
      26.1000   9.51938e-13
      26.2000   6.75606e-13
      26.3000   5.18654e-13
      26.4000   3.63083e-13
      26.5000   2.79934e-13
      26.6000   1.97127e-13
      26.7000   1.49582e-13
      26.8000   1.06366e-13
      26.9000   7.90876e-14
      27.0000   5.68582e-14
      27.1000   4.13303e-14
      27.2000   3.00674e-14
      27.3000   2.13523e-14
      27.4000   1.58038e-14
      27.5000   1.09876e-14
      27.6000   8.21956e-15
      27.7000   5.54238e-15
      27.8000   4.20128e-15
      27.9000   2.86553e-15
      28.0000   2.11511e-15
      28.1000   1.48063e-15
      28.2000   1.04889e-15
      28.3000   7.52621e-16
      28.4000   5.11934e-16
      28.5000   3.75979e-16
      28.6000   2.45719e-16
      28.7000   1.84447e-16
      28.8000   1.23423e-16
      28.9000   8.87992e-17
      29.0000   6.17697e-17
      29.1000   4.19112e-17
      29.2000   3.01596e-17
      29.3000   1.93796e-17
      29.4000   1.43673e-17
      29.5000   9.37550e-18
      29.6000   6.67806e-18
      29.7000   4.59035e-18
      29.8000   3.02881e-18
      29.9000   2.17272e-18
      30.0000   1.34021e-18
      30.1000   9.96229e-19
      30.2000   6.53648e-19
      30.3000   4.46643e-19
      30.4000   3.17348e-19
      30.5000   2.04048e-19
      30.6000   1.48712e-19
      30.7000   9.36015e-20
      30.8000   6.48550e-20
      30.9000   4.40819e-20
      31.0000   2.73945e-20
      31.1000   1.98344e-20
      31.2000   1.23051e-20
      31.3000   8.66445e-21
      31.4000   5.86406e-21
      31.5000   3.64133e-21
      31.6000   2.62221e-21
      31.7000   1.60728e-21
      31.8000   1.11434e-21
      31.9000   7.53592e-22
      32.0000   4.54639e-22
      32.1000   3.31658e-22
      32.2000   2.09178e-22
      32.3000   1.41439e-22
      32.4000   9.79224e-23
      32.5000   5.76707e-23
      32.6000   4.25474e-23
      32.7000   2.74853e-23
      32.8000   1.74629e-23
      32.9000   1.23403e-23
      33.0000   7.23870e-24
      33.1000   5.13173e-24
      33.2000   3.43616e-24
      33.3000   2.01315e-24
      33.4000   1.46208e-24
      33.5000   9.13221e-25
      33.6000   5.77187e-25
      33.7000   4.02994e-25
      33.8000   2.29481e-25
      33.9000   1.61009e-25
      34.0000   1.07240e-25
      34.1000   5.99374e-26
      34.2000   4.36829e-26
      34.3000   2.74864e-26
      34.4000   1.62908e-26
      34.5000   1.15170e-26
      34.6000   6.76065e-27
      34.7000   4.31694e-27
      34.8000   2.95017e-27
      34.9000   1.58826e-27
      35.0000   1.11455e-27
      35.1000   7.33903e-28
      35.2000   3.84272e-28
      35.3000   2.80706e-28
      35.4000   1.77508e-28
      35.5000   9.63175e-29
      35.6000   6.90007e-29
      35.7000   4.17808e-29
      35.8000   2.35704e-29
      35.9000   1.65641e-29
      36.0000   9.58264e-30
      36.1000   5.63176e-30
      36.2000   3.88590e-30
      36.3000   2.14621e-30
      36.4000   1.31434e-30
      36.5000   8.91814e-31
      36.6000   4.70812e-31
      36.7000   2.99670e-31
      36.8000   2.00416e-31
      36.9000   1.01519e-31
      37.0000   6.67534e-32
      37.1000   4.41358e-32
      37.2000   2.15977e-32
      37.3000   1.45249e-32
      37.4000   9.52918e-33
      37.5000   4.55136e-33
      37.6000   3.08693e-33
      37.7000   2.01812e-33
      37.8000   9.53140e-34
      37.9000   6.40684e-34
      38.0000   4.19226e-34
      38.1000   1.98552e-34
      38.2000   1.29735e-34
      38.3000   8.53324e-35
      38.4000   4.10870e-35
      38.5000   2.55945e-35
      38.6000   1.69937e-35
      38.7000   8.42325e-36
      38.8000   4.91663e-36
      38.9000   3.30733e-36
      39.0000   1.70365e-36
      39.1000   9.18829e-37
      39.2000   6.27992e-37
      39.3000   3.38167e-37
      39.4000   1.66599e-37
      39.5000   1.15579e-37
      39.6000   6.47399e-38
      39.7000   2.84336e-38
      39.8000   2.01162e-38
      39.9000   1.18277e-38
      40.0000   4.68069e-39
      40.1000   3.38030e-39
      40.2000   2.08442e-39
      40.3000   7.93187e-40
      40.4000   5.48575e-40
      40.5000   3.53742e-40
      40.6000   1.59581e-40
      40.7000   8.57595e-41
      40.8000   5.76242e-41
      40.9000   2.95856e-41
      41.0000   1.28849e-41
      41.1000   8.98793e-42
      41.2000   5.10493e-42
      41.3000   1.85952e-42
      41.4000   1.33824e-42
      41.5000   8.23963e-43
      41.6000   3.12490e-43
      41.7000   1.89175e-43
      41.8000   1.24716e-43
      41.9000   5.74532e-44
      42.0000   2.52234e-44
      42.1000   2.24208e-44
      42.2000   9.80909e-45
      42.3000   2.80260e-45
      42.4000   2.80260e-45
      42.5000   2.80260e-45
      42.6000  -2.80260e-45
      42.7000       0.00000
      42.8000       0.00000
      42.9000       0.00000
      43.0000       0.00000
      43.1000       0.00000
      43.2000       0.00000
      43.3000       0.00000
      43.4000       0.00000
      43.5000       0.00000
      43.6000       0.00000
      43.7000       0.00000
      43.8000       0.00000
      43.9000       0.00000
      44.0000       0.00000
      44.1000       0.00000
      44.2000       0.00000
      44.3000       0.00000
      44.4000       0.00000
      44.5000       0.00000
      44.6000       0.00000
      44.7000       0.00000
      44.8000       0.00000
      44.9000       0.00000
      45.0000       0.00000
      45.1000       0.00000
      45.2000       0.00000
      45.3000       0.00000
      45.4000       0.00000
      45.5000       0.00000
      45.6000       0.00000
      45.7000       0.00000
      45.8000       0.00000
      45.9000       0.00000
      46.0000       0.00000
      46.1000       0.00000
      46.2000       0.00000
      46.3000       0.00000
      46.4000       0.00000
      46.5000       0.00000
      46.6000       0.00000
      46.7000       0.00000
      46.8000       0.00000
      46.9000       0.00000
      47.0000       0.00000
      47.1000       0.00000
      47.2000       0.00000
      47.3000       0.00000
      47.4000       0.00000
      47.5000       0.00000
      47.6000       0.00000
      47.7000       0.00000
      47.8000       0.00000
      47.9000       0.00000
      48.0000       0.00000
      48.1000       0.00000
      48.2000       0.00000
      48.3000       0.00000
      48.4000       0.00000
      48.5000       0.00000
      48.6000       0.00000
      48.7000       0.00000
      48.8000       0.00000
      48.9000       0.00000
      49.0000       0.00000
      49.1000       0.00000
      49.2000       0.00000
      49.3000       0.00000
      49.4000       0.00000
      49.5000       0.00000
      49.6000       0.00000
      49.7000       0.00000
      49.8000       0.00000
      49.9000       0.00000
      50.0000       0.00000
      50.1000       0.00000
      50.2000       0.00000
      50.3000       0.00000
      50.4000       0.00000
      50.5000       0.00000
      50.6000       0.00000
      50.7000       0.00000
      50.8000       0.00000
      50.9000       0.00000
      51.0000       0.00000
      51.1000       0.00000
      51.2000       0.00000
      51.3000       0.00000
      51.4000       0.00000
      51.5000       0.00000
      51.6000       0.00000
      51.7000       0.00000
      51.8000       0.00000
      51.9000       0.00000
      52.0000       0.00000
      52.1000       0.00000
      52.2000       0.00000
      52.3000       0.00000
      52.4000       0.00000
      52.5000       0.00000
      52.6000       0.00000
      52.7000       0.00000
      52.8000       0.00000
      52.9000       0.00000
      53.0000       0.00000
      53.1000       0.00000
      53.2000       0.00000
      53.3000       0.00000
      53.4000       0.00000
      53.5000       0.00000
      53.6000       0.00000
      53.7000       0.00000
      53.8000       0.00000
      53.9000       0.00000
      54.0000       0.00000
      54.1000       0.00000
      54.2000       0.00000
      54.3000       0.00000
      54.4000       0.00000
      54.5000       0.00000
      54.6000       0.00000
      54.7000       0.00000
      54.8000       0.00000
      54.9000       0.00000
      55.0000       0.00000
      55.1000       0.00000
      55.2000       0.00000
      55.3000       0.00000
      55.4000       0.00000
      55.5000       0.00000
      55.6000       0.00000
      55.7000       0.00000
      55.8000       0.00000
      55.9000       0.00000
      56.0000       0.00000
      56.1000       0.00000
      56.2000       0.00000
      56.3000       0.00000
      56.4000       0.00000
      56.5000       0.00000
      56.6000       0.00000
      56.7000       0.00000
      56.8000       0.00000
      56.9000       0.00000
      57.0000       0.00000
      57.1000       0.00000
      57.2000       0.00000
      57.3000       0.00000
      57.4000       0.00000
      57.5000       0.00000
      57.6000       0.00000
      57.7000       0.00000
      57.8000       0.00000
      57.9000       0.00000
      58.0000       0.00000
      58.1000       0.00000
      58.2000       0.00000
      58.3000       0.00000
      58.4000       0.00000
      58.5000       0.00000
      58.6000       0.00000
      58.7000       0.00000
      58.8000       0.00000
      58.9000       0.00000
      59.0000       0.00000
      59.1000       0.00000
      59.2000       0.00000
      59.3000       0.00000
      59.4000       0.00000
      59.5000       0.00000
      59.6000       0.00000
      59.7000       0.00000
      59.8000       0.00000
      59.9000       0.00000
      60.0000       0.00000
      60.1000       0.00000
      60.2000       0.00000
      60.3000       0.00000
      60.4000       0.00000
      60.5000       0.00000
      60.6000       0.00000
      60.7000       0.00000
      60.8000       0.00000
      60.9000       0.00000
      61.0000       0.00000
      61.1000       0.00000
      61.2000       0.00000
      61.3000       0.00000
      61.4000       0.00000
      61.5000       0.00000
      61.6000       0.00000
      61.7000       0.00000
      61.8000       0.00000
      61.9000       0.00000
      62.0000       0.00000
      62.1000       0.00000
      62.2000       0.00000
      62.3000       0.00000
      62.4000       0.00000
      62.5000       0.00000
      62.6000       0.00000
      62.7000       0.00000
      62.8000       0.00000
      62.9000       0.00000
      63.0000       0.00000
      63.1000       0.00000
      63.2000       0.00000
      63.3000       0.00000
      63.4000       0.00000
      63.5000       0.00000
      63.6000       0.00000
      63.7000       0.00000
      63.8000       0.00000
      63.9000       0.00000
      64.0000       0.00000
      64.1000       0.00000
      64.2000       0.00000
      64.3000       0.00000
      64.4000       0.00000
      64.5000       0.00000
      64.6000       0.00000
      64.7000       0.00000
      64.8000       0.00000
      64.9000       0.00000
      65.0000       0.00000
      65.1000       0.00000
      65.2000       0.00000
      65.3000       0.00000
      65.4000       0.00000
      65.5000       0.00000
      65.6000       0.00000
      65.7000       0.00000
      65.8000       0.00000
      65.9000       0.00000
      66.0000       0.00000
      66.1000       0.00000
      66.2000       0.00000
      66.3000       0.00000
      66.4000       0.00000
      66.5000       0.00000
      66.6000       0.00000
      66.7000       0.00000
      66.8000       0.00000
      66.9000       0.00000
      67.0000       0.00000
      67.1000       0.00000
      67.2000       0.00000
      67.3000       0.00000
      67.4000       0.00000
      67.5000       0.00000
      67.6000       0.00000
      67.7000       0.00000
      67.8000       0.00000
      67.9000       0.00000
      68.0000       0.00000
      68.1000       0.00000
      68.2000       0.00000
      68.3000       0.00000
      68.4000       0.00000
      68.5000       0.00000
      68.6000       0.00000
      68.7000       0.00000
      68.8000       0.00000
      68.9000       0.00000
      69.0000       0.00000
      69.1000       0.00000
      69.2000       0.00000
      69.3000       0.00000
      69.4000       0.00000
      69.5000       0.00000
      69.6000       0.00000
      69.7000       0.00000
      69.8000       0.00000
      69.9000       0.00000
      70.0000       0.00000
      70.1000       0.00000
      70.2000       0.00000
      70.3000       0.00000
      70.4000       0.00000
      70.5000       0.00000
      70.6000       0.00000
      70.7000       0.00000
      70.8000       0.00000
      70.9000       0.00000
      71.0000       0.00000
      71.1000       0.00000
      71.2000       0.00000
      71.3000       0.00000
      71.4000       0.00000
      71.5000       0.00000
      71.6000       0.00000
      71.7000       0.00000
      71.8000       0.00000
      71.9000       0.00000
      72.0000       0.00000
