Filter Ti-poly
observation_date 25-Jan-2024 05:00:00
wavelength effective area 
      1.00000   2.76776e-10
      1.10000   7.88638e-10
      1.20000   2.04568e-09
      1.30000   4.87933e-09
      1.40000   1.10399e-08
      1.50000   2.34772e-08
      1.60000   4.73585e-08
      1.70000   9.15812e-08
      1.80000   1.69776e-07
      1.90000   3.03738e-07
      2.00000   5.25447e-07
      2.10000   8.82845e-07
      2.20000   1.44759e-06
      2.30000   2.31334e-06
      2.40000   3.60944e-06
      2.50000   5.78519e-06
      2.60000   8.95635e-06
      2.70000   1.33526e-05
      2.80000   1.95262e-05
      2.90000   2.82609e-05
      3.00000   4.02650e-05
      3.10000   5.66310e-05
      3.20000   7.87803e-05
      3.30000   0.000108479
      3.40000   0.000147819
      3.50000   0.000199477
      3.60000   0.000267953
      3.70000   0.000356117
      3.80000   0.000471334
      3.90000   0.000620375
      4.00000   0.000811471
      4.10000    0.00105653
      4.20000    0.00137069
      4.30000    0.00177323
      4.40000    0.00228791
      4.50000    0.00294390
      4.60000    0.00377531
      4.70000    0.00484142
      4.80000    0.00620231
      4.90000    0.00784366
      5.00000     0.0101807
      5.10000     0.0130279
      5.20000     0.0167210
      5.30000     0.0212796
      5.40000     0.0270380
      5.50000     0.0344150
      5.60000     0.0424614
      5.70000     0.0551937
      5.80000     0.0647051
      5.90000     0.0987924
      6.00000      0.132798
      6.10000      0.169724
      6.20000      0.208414
      6.30000      0.245313
      6.40000      0.276970
      6.50000      0.300273
      6.60000      0.310808
      6.70000      0.320491
      6.80000      0.320910
      6.90000      0.420999
      7.00000      0.457817
      7.10000      0.484163
      7.20000      0.505082
      7.30000      0.522133
      7.40000      0.535137
      7.50000      0.545476
      7.60000      0.553259
      7.70000      0.557023
      7.80000      0.555689
      7.90000      0.555015
      8.00000      0.802384
      8.10000      0.878026
      8.20000      0.891926
      8.30000      0.901741
      8.40000      0.908081
      8.50000      0.912973
      8.60000      0.916137
      8.70000      0.918175
      8.80000      0.918787
      8.90000      0.918438
      9.00000      0.917062
      9.10000      0.914711
      9.20000      0.911567
      9.30000      0.907550
      9.40000      0.902805
      9.50000      0.897390
      9.60000      0.891257
      9.70000      0.884515
      9.80000      0.877311
      9.90000      0.869673
      10.0000      0.861663
      10.1000      0.853291
      10.2000      0.844582
      10.3000      0.835482
      10.4000      0.826020
      10.5000      0.816219
      10.6000      0.806119
      10.7000      0.795744
      10.8000      0.785105
      10.9000      0.774232
      11.0000      0.763141
      11.1000      0.751865
      11.2000      0.740409
      11.3000      0.728807
      11.4000      0.717053
      11.5000      0.705151
      11.6000      0.693118
      11.7000      0.680904
      11.8000      0.668588
      11.9000      0.656091
      12.0000      0.642736
      12.1000      0.631724
      12.2000      0.631773
      12.3000      0.625141
      12.4000      0.613891
      12.5000      0.602260
      12.6000      0.590497
      12.7000      0.578697
      12.8000      0.566900
      12.9000      0.555116
      13.0000      0.543388
      13.1000      0.531746
      13.2000      0.520204
      13.3000      0.508779
      13.4000      0.497487
      13.5000      0.486456
      13.6000      0.475663
      13.7000      0.464998
      13.8000      0.454454
      13.9000      0.444052
      14.0000      0.433791
      14.1000      0.423655
      14.2000      0.413646
      14.3000      0.403761
      14.4000      0.393991
      14.5000      0.384349
      14.6000      0.374836
      14.7000      0.365443
      14.8000      0.356175
      14.9000      0.347034
      15.0000      0.338024
      15.1000      0.329149
      15.2000      0.320437
      15.3000      0.311868
      15.4000      0.303438
      15.5000      0.295150
      15.6000      0.287021
      15.7000      0.279047
      15.8000      0.271266
      15.9000      0.263648
      16.0000      0.256191
      16.1000      0.248897
      16.2000      0.241804
      16.3000      0.234863
      16.4000      0.228059
      16.5000      0.221388
      16.6000      0.214865
      16.7000      0.208493
      16.8000      0.202244
      16.9000      0.196116
      17.0000      0.190133
      17.1000      0.184293
      17.2000      0.178566
      17.3000      0.172958
      17.4000      0.167597
      17.5000      0.162444
      17.6000      0.157472
      17.7000      0.152709
      17.8000      0.148243
      17.9000      0.143876
      18.0000      0.139576
      18.1000      0.135389
      18.2000      0.131243
      18.3000      0.127128
      18.4000      0.123040
      18.5000      0.118985
      18.6000      0.114951
      18.7000      0.110923
      18.8000      0.107007
      18.9000      0.103173
      19.0000     0.0994543
      19.1000     0.0958574
      19.2000     0.0923489
      19.3000     0.0889807
      19.4000     0.0857257
      19.5000     0.0825557
      19.6000     0.0795461
      19.7000     0.0766205
      19.8000     0.0737710
      19.9000     0.0710625
      20.0000     0.0684127
      20.1000     0.0658429
      20.2000     0.0633603
      20.3000     0.0609285
      20.4000     0.0585918
      20.5000     0.0563131
      20.6000     0.0540872
      20.7000     0.0519531
      20.8000     0.0498598
      20.9000     0.0478385
      21.0000     0.0459705
      21.1000     0.0442207
      21.2000     0.0428214
      21.3000     0.0415237
      21.4000     0.0404443
      21.5000     0.0396110
      21.6000     0.0390255
      21.7000     0.0384116
      21.8000     0.0377881
      21.9000     0.0370855
      22.0000     0.0363352
      22.1000     0.0354666
      22.2000     0.0343869
      22.3000     0.0331260
      22.4000     0.0311974
      22.5000     0.0290669
      22.6000     0.0244760
      22.7000     0.0217253
      22.8000     0.0278727
      22.9000     0.0354423
      23.0000     0.0445410
      23.1000     0.0499965
      23.2000     0.0521288
      23.3000     0.0519483
      23.4000     0.0506237
      23.5000     0.0492690
      23.6000     0.0479123
      23.7000     0.0464732
      23.8000     0.0450356
      23.9000     0.0436359
      24.0000     0.0422454
      24.1000     0.0408762
      24.2000     0.0395239
      24.3000     0.0382169
      24.4000     0.0369277
      24.5000     0.0356763
      24.6000     0.0344479
      24.7000     0.0332626
      24.8000     0.0321004
      24.9000     0.0309767
      25.0000     0.0298778
      25.1000     0.0288186
      25.2000     0.0277826
      25.3000     0.0267839
      25.4000     0.0258078
      25.5000     0.0248706
      25.6000     0.0239541
      25.7000     0.0230766
      25.8000     0.0222161
      25.9000     0.0213951
      26.0000     0.0205870
      26.1000     0.0198188
      26.2000     0.0190595
      26.3000     0.0183429
      26.4000     0.0176307
      26.5000     0.0169619
      26.6000     0.0162968
      26.7000     0.0156707
      26.8000     0.0150529
      26.9000     0.0144654
      27.0000     0.0138895
      27.1000     0.0133354
      27.2000     0.0127963
      27.3000     0.0551569
      27.4000      0.150895
      27.5000      0.220519
      27.6000      0.216861
      27.7000      0.213215
      27.8000      0.209495
      27.9000      0.205794
      28.0000      0.202164
      28.1000      0.198562
      28.2000      0.195020
      28.3000      0.191522
      28.4000      0.188067
      28.5000      0.184675
      28.6000      0.181308
      28.7000      0.178048
      28.8000      0.174806
      28.9000      0.171630
      29.0000      0.168484
      29.1000      0.165384
      29.2000      0.162332
      29.3000      0.159306
      29.4000      0.156350
      29.5000      0.153410
      29.6000      0.150534
      29.7000      0.147687
      29.8000      0.144884
      29.9000      0.142130
      30.0000      0.139395
      30.1000      0.136732
      30.2000      0.134084
      30.3000      0.136657
      30.4000      0.142188
      30.5000      0.145950
      30.6000      0.143251
      30.7000      0.140567
      30.8000      0.137945
      30.9000      0.135352
      31.0000      0.132793
      31.1000      0.130292
      31.2000      0.127806
      31.3000      0.125383
      31.4000      0.122984
      31.5000      0.120622
      31.6000      0.118321
      31.7000      0.116034
      31.8000      0.113800
      31.9000      0.111590
      32.0000      0.109392
      32.1000      0.107201
      32.2000      0.105024
      32.3000      0.102901
      32.4000      0.100809
      32.5000     0.0987381
      32.6000     0.0967513
      32.7000     0.0947767
      32.8000     0.0928424
      32.9000     0.0909476
      33.0000     0.0890645
      33.1000     0.0872930
      33.2000     0.0855445
      33.3000     0.0838180
      33.4000     0.0821398
      33.5000     0.0804730
      33.6000     0.0788457
      33.7000     0.0772492
      33.8000     0.0756621
      33.9000     0.0741268
      34.0000     0.0726066
      34.1000     0.0711134
      34.2000     0.0696627
      34.3000     0.0682204
      34.4000     0.0668060
      34.5000     0.0654256
      34.6000     0.0640532
      34.7000     0.0627114
      34.8000     0.0613883
      34.9000     0.0600727
      35.0000     0.0588051
      35.1000     0.0575491
      35.2000     0.0563082
      35.3000     0.0551418
      35.4000     0.0539823
      35.5000     0.0528403
      35.6000     0.0517332
      35.7000     0.0506324
      35.8000     0.0495547
      35.9000     0.0485048
      36.0000     0.0474608
      36.1000     0.0464444
      36.2000     0.0454496
      36.3000     0.0444605
      36.4000     0.0435017
      36.5000     0.0425597
      36.6000     0.0416230
      36.7000     0.0407190
      36.8000     0.0398283
      36.9000     0.0389426
      37.0000     0.0380905
      37.1000     0.0372489
      37.2000     0.0364120
      37.3000     0.0356091
      37.4000     0.0348148
      37.5000     0.0340251
      37.6000     0.0332684
      37.7000     0.0325194
      37.8000     0.0317746
      37.9000     0.0310617
      38.0000     0.0303565
      38.1000     0.0296551
      38.2000     0.0289833
      38.3000     0.0283196
      38.4000     0.0276597
      38.5000     0.0270265
      38.6000     0.0264028
      38.7000     0.0257825
      38.8000     0.0251858
      38.9000     0.0246002
      39.0000     0.0240178
      39.1000     0.0234554
      39.2000     0.0229062
      39.3000     0.0223601
      39.4000     0.0218298
      39.5000     0.0213153
      39.6000     0.0208038
      39.7000     0.0203036
      39.8000     0.0198223
      39.9000     0.0193439
      40.0000     0.0188722
      40.1000     0.0184231
      40.2000     0.0179766
      40.3000     0.0175329
      40.4000     0.0171126
      40.5000     0.0166960
      40.6000     0.0162818
      40.7000     0.0158852
      40.8000     0.0154967
      40.9000     0.0151105
      41.0000     0.0147359
      41.1000     0.0143741
      41.2000     0.0140143
      41.3000     0.0136606
      41.4000     0.0133245
      41.5000     0.0129904
      41.6000     0.0126583
      41.7000     0.0123438
      41.8000     0.0120334
      41.9000     0.0117250
      42.0000     0.0114278
      42.1000     0.0111401
      42.2000     0.0108541
      42.3000     0.0105728
      42.4000     0.0103063
      42.5000     0.0100413
      42.6000    0.00977797
      42.7000    0.00952801
      42.8000    0.00928271
      42.9000    0.00903888
      43.0000    0.00880191
      43.1000    0.00857525
      43.2000    0.00834996
      43.3000    0.00812609
      43.4000     0.0247792
      43.5000     0.0475153
      43.6000     0.0763848
      43.7000     0.0989746
      43.8000      0.104533
      43.9000      0.103110
      44.0000      0.101691
      44.1000      0.100316
      44.2000     0.0989466
      44.3000     0.0975808
      44.4000     0.0962362
      44.5000     0.0949180
      44.6000     0.0936032
      44.7000     0.0922918
      44.8000     0.0910225
      44.9000     0.0897618
      45.0000     0.0885044
      45.1000     0.0872619
      45.2000     0.0860502
      45.3000     0.0848418
      45.4000     0.0836364
      45.5000     0.0824607
      45.6000     0.0813004
      45.7000     0.0801432
      45.8000     0.0789904
      45.9000     0.0778769
      46.0000     0.0767661
      46.1000     0.0756582
      46.2000     0.0746002
      46.3000     0.0736255
      46.4000     0.0726535
      46.5000     0.0716838
      46.6000     0.0707494
      46.7000     0.0698335
      46.8000     0.0689201
      46.9000     0.0680089
      47.0000     0.0671459
      47.1000     0.0662882
      47.2000     0.0654326
      47.3000     0.0645848
      47.4000     0.0637647
      47.5000     0.0629467
      47.6000     0.0621308
      47.7000     0.0613307
      47.8000     0.0605540
      47.9000     0.0597793
      48.0000     0.0590067
      48.1000     0.0582515
      48.2000     0.0575099
      48.3000     0.0567703
      48.4000     0.0560325
      48.5000     0.0553213
      48.6000     0.0546217
      48.7000     0.0539239
      48.8000     0.0532278
      48.9000     0.0525549
      49.0000     0.0518879
      49.1000     0.0512226
      49.2000     0.0505591
      49.3000     0.0499180
      49.4000     0.0492803
      49.5000     0.0486441
      49.6000     0.0480096
      49.7000     0.0473977
      49.8000     0.0467878
      49.9000     0.0461794
      50.0000     0.0455733
      50.1000     0.0449859
      50.2000     0.0444122
      50.3000     0.0438452
      50.4000     0.0432845
      50.5000     0.0427297
      50.6000     0.0421815
      50.7000     0.0416399
      50.8000     0.0411043
      50.9000     0.0405753
      51.0000     0.0400528
      51.1000     0.0395367
      51.2000     0.0390263
      51.3000     0.0385227
      51.4000     0.0380258
      51.5000     0.0375333
      51.6000     0.0370461
      51.7000     0.0365639
      51.8000     0.0360824
      51.9000     0.0356060
      52.0000     0.0351347
      52.1000     0.0346690
      52.2000     0.0342083
      52.3000     0.0337523
      52.4000     0.0333031
      52.5000     0.0328591
      52.6000     0.0324098
      52.7000     0.0319554
      52.8000     0.0315059
      52.9000     0.0310626
      53.0000     0.0306253
      53.1000     0.0301927
      53.2000     0.0297661
      53.3000     0.0293446
      53.4000     0.0289278
      53.5000     0.0285166
      53.6000     0.0281105
      53.7000     0.0277089
      53.8000     0.0273125
      53.9000     0.0269210
      54.0000     0.0265347
      54.1000     0.0261544
      54.2000     0.0257785
      54.3000     0.0254064
      54.4000     0.0250392
      54.5000     0.0246764
      54.6000     0.0243183
      54.7000     0.0239658
      54.8000     0.0236180
      54.9000     0.0232741
      55.0000     0.0229346
      55.1000     0.0225988
      55.2000     0.0222570
      55.3000     0.0219113
      55.4000     0.0215702
      55.5000     0.0212331
      55.6000     0.0209008
      55.7000     0.0205731
      55.8000     0.0202496
      55.9000     0.0199309
      56.0000     0.0196196
      56.1000     0.0193088
      56.2000     0.0189987
      56.3000     0.0186932
      56.4000     0.0183916
      56.5000     0.0180941
      56.6000     0.0178013
      56.7000     0.0175127
      56.8000     0.0172279
      56.9000     0.0169476
      57.0000     0.0166781
      57.1000     0.0164167
      57.2000     0.0161588
      57.3000     0.0159044
      57.4000     0.0156533
      57.5000     0.0154057
      57.6000     0.0151615
      57.7000     0.0149206
      57.8000     0.0146836
      57.9000     0.0144504
      58.0000     0.0142203
      58.1000     0.0139930
      58.2000     0.0137689
      58.3000     0.0135480
      58.4000     0.0133301
      58.5000     0.0131155
      58.6000     0.0129043
      58.7000     0.0126960
      58.8000     0.0124905
      58.9000     0.0122879
      59.0000     0.0120881
      59.1000     0.0118913
      59.2000     0.0116973
      59.3000     0.0115063
      59.4000     0.0113181
      59.5000     0.0111327
      59.6000     0.0109500
      59.7000     0.0107698
      59.8000     0.0105922
      59.9000     0.0104170
      60.0000     0.0102449
      60.1000     0.0100752
      60.2000    0.00990787
      60.3000    0.00974315
      60.4000    0.00958097
      60.5000    0.00942133
      60.6000    0.00926381
      60.7000    0.00910842
      60.8000    0.00895524
      60.9000    0.00880417
      61.0000    0.00865550
      61.1000    0.00850930
      61.2000    0.00836530
      61.3000    0.00822346
      61.4000    0.00808377
      61.5000    0.00794622
      61.6000    0.00781063
      61.7000    0.00767749
      61.8000    0.00754869
      61.9000    0.00742266
      62.0000    0.00729850
      62.1000    0.00717619
      62.2000    0.00705593
      62.3000    0.00693748
      62.4000    0.00682070
      62.5000    0.00670562
      62.6000    0.00659228
      62.7000    0.00648107
      62.8000    0.00637659
      62.9000    0.00627379
      63.0000    0.00617254
      63.1000    0.00607277
      63.2000    0.00597436
      63.3000    0.00587732
      63.4000    0.00578173
      63.5000    0.00568765
      63.6000    0.00559488
      63.7000    0.00550343
      63.8000    0.00541343
      63.9000    0.00532483
      64.0000    0.00523753
      64.1000    0.00515153
      64.2000    0.00506694
      64.3000    0.00498366
      64.4000    0.00490155
      64.5000    0.00482055
      64.6000    0.00474072
      64.7000    0.00466206
      64.8000    0.00458456
      64.9000    0.00450822
      65.0000    0.00443310
      65.1000    0.00435930
      65.2000    0.00428665
      65.3000    0.00421502
      65.4000    0.00414443
      65.5000    0.00407485
      65.6000    0.00400626
      65.7000    0.00393873
      65.8000    0.00387229
      65.9000    0.00380697
      66.0000    0.00374273
      66.1000    0.00367952
      66.2000    0.00361726
      66.3000    0.00355593
      66.4000    0.00349552
      66.5000    0.00343599
      66.6000    0.00337733
      66.7000    0.00331960
      66.8000    0.00326286
      66.9000    0.00320742
      67.0000    0.00315317
      67.1000    0.00309980
      67.2000    0.00304725
      67.3000    0.00299557
      67.4000    0.00294465
      67.5000    0.00289449
      67.6000    0.00284511
      67.7000    0.00279651
      67.8000    0.00274862
      67.9000    0.00270128
      68.0000    0.00265469
      68.1000    0.00260890
      68.2000    0.00256384
      68.3000    0.00251949
      68.4000    0.00247586
      68.5000    0.00243292
      68.6000    0.00239069
      68.7000    0.00234915
      68.8000    0.00230826
      68.9000    0.00226860
      69.0000    0.00223274
      69.1000    0.00220035
      69.2000    0.00216894
      69.3000    0.00213835
      69.4000    0.00210896
      69.5000    0.00207903
      69.6000    0.00204822
      69.7000    0.00201868
      69.8000    0.00199055
      69.9000    0.00196282
      70.0000    0.00193539
      70.1000    0.00190778
      70.2000    0.00188153
      70.3000    0.00185662
      70.4000    0.00183182
      70.5000    0.00180766
      70.6000    0.00178410
      70.7000    0.00176086
      70.8000    0.00173788
      70.9000    0.00171436
      71.0000    0.00169040
      71.1000    0.00166754
      71.2000    0.00164578
      71.3000    0.00162273
      71.4000    0.00159810
      71.5000    0.00157540
      71.6000    0.00155551
      71.7000    0.00153549
      71.8000    0.00151482
      71.9000    0.00149487
      72.0000    0.00147641
