Filter Ti-poly
observation_date 22-Sept-2010 22:40:45
wavelength effective area 
      1.00000   2.76778e-10
      1.10000   7.88646e-10
      1.20000   2.04571e-09
      1.30000   4.87941e-09
      1.40000   1.10402e-08
      1.50000   2.34778e-08
      1.60000   4.73601e-08
      1.70000   9.15849e-08
      1.80000   1.69784e-07
      1.90000   3.03755e-07
      2.00000   5.25481e-07
      2.10000   8.82912e-07
      2.20000   1.44772e-06
      2.30000   2.31357e-06
      2.40000   3.60986e-06
      2.50000   5.78595e-06
      2.60000   8.95767e-06
      2.70000   1.33548e-05
      2.80000   1.95298e-05
      2.90000   2.82667e-05
      3.00000   4.02741e-05
      3.10000   5.66452e-05
      3.20000   7.88022e-05
      3.30000   0.000108512
      3.40000   0.000147868
      3.50000   0.000199550
      3.60000   0.000268059
      3.70000   0.000356270
      3.80000   0.000471553
      3.90000   0.000620686
      4.00000   0.000811911
      4.10000    0.00105714
      4.20000    0.00137155
      4.30000    0.00177442
      4.40000    0.00228956
      4.50000    0.00294616
      4.60000    0.00377841
      4.70000    0.00484565
      4.80000    0.00620808
      4.90000    0.00785141
      5.00000     0.0101914
      5.10000     0.0130423
      5.20000     0.0167406
      5.30000     0.0213061
      5.40000     0.0270735
      5.50000     0.0344626
      5.60000     0.0425234
      5.70000     0.0552785
      5.80000     0.0648097
      5.90000     0.0989603
      6.00000      0.133035
      6.10000      0.170042
      6.20000      0.208823
      6.30000      0.245817
      6.40000      0.277566
      6.50000      0.300949
      6.60000      0.311539
      6.70000      0.321278
      6.80000      0.321732
      6.90000      0.422124
      7.00000      0.459093
      7.10000      0.485568
      7.20000      0.506608
      7.30000      0.523774
      7.40000      0.536886
      7.50000      0.547329
      7.60000      0.555211
      7.70000      0.559063
      7.80000      0.557801
      7.90000      0.557202
      8.00000      0.805663
      8.10000      0.881743
      8.20000      0.895837
      8.30000      0.905835
      8.40000      0.912346
      8.50000      0.917407
      8.60000      0.920737
      8.70000      0.922938
      8.80000      0.923710
      8.90000      0.923518
      9.00000      0.922298
      9.10000      0.920100
      9.20000      0.917106
      9.30000      0.913236
      9.40000      0.908635
      9.50000      0.903361
      9.60000      0.897367
      9.70000      0.890759
      9.80000      0.883686
      9.90000      0.876175
      10.0000      0.868289
      10.1000      0.860037
      10.2000      0.851445
      10.3000      0.842459
      10.4000      0.833105
      10.5000      0.823409
      10.6000      0.813410
      10.7000      0.803132
      10.8000      0.792585
      10.9000      0.781801
      11.0000      0.770793
      11.1000      0.759597
      11.2000      0.748216
      11.3000      0.736684
      11.4000      0.724996
      11.5000      0.713154
      11.6000      0.701177
      11.7000      0.689013
      11.8000      0.676741
      11.9000      0.664281
      12.0000      0.650947
      12.1000      0.639980
      12.2000      0.640217
      12.3000      0.633686
      12.4000      0.622471
      12.5000      0.610866
      12.6000      0.599122
      12.7000      0.587336
      12.8000      0.575548
      12.9000      0.563768
      13.0000      0.552039
      13.1000      0.540391
      13.2000      0.528841
      13.3000      0.517402
      13.4000      0.506093
      13.5000      0.495042
      13.6000      0.484228
      13.7000      0.473537
      13.8000      0.462964
      13.9000      0.452531
      14.0000      0.442235
      14.1000      0.432061
      14.2000      0.422011
      14.3000      0.412083
      14.4000      0.402266
      14.5000      0.392574
      14.6000      0.383008
      14.7000      0.373559
      14.8000      0.364233
      14.9000      0.355031
      15.0000      0.345956
      15.1000      0.337015
      15.2000      0.328233
      15.3000      0.319593
      15.4000      0.311090
      15.5000      0.302725
      15.6000      0.294518
      15.7000      0.286464
      15.8000      0.278602
      15.9000      0.270902
      16.0000      0.263361
      16.1000      0.255982
      16.2000      0.248803
      16.3000      0.241774
      16.4000      0.234882
      16.5000      0.228122
      16.6000      0.221508
      16.7000      0.215044
      16.8000      0.208702
      16.9000      0.202480
      17.0000      0.196401
      17.1000      0.190466
      17.2000      0.184642
      17.3000      0.178937
      17.4000      0.173479
      17.5000      0.168231
      17.6000      0.163165
      17.7000      0.158308
      17.8000      0.153752
      17.9000      0.149296
      18.0000      0.144905
      18.1000      0.140628
      18.2000      0.136390
      18.3000      0.132182
      18.4000      0.127998
      18.5000      0.123847
      18.6000      0.119713
      18.7000      0.115583
      18.8000      0.111565
      18.9000      0.107629
      19.0000      0.103810
      19.1000      0.100113
      19.2000     0.0965048
      19.3000     0.0930395
      19.4000     0.0896887
      19.5000     0.0864231
      19.6000     0.0833219
      19.7000     0.0803052
      19.8000     0.0773650
      19.9000     0.0745693
      20.0000     0.0718322
      20.1000     0.0691762
      20.2000     0.0666088
      20.3000     0.0640919
      20.4000     0.0616724
      20.5000     0.0593110
      20.6000     0.0570027
      20.7000     0.0547885
      20.8000     0.0526146
      20.9000     0.0505143
      21.0000     0.0485734
      21.1000     0.0467551
      21.2000     0.0453056
      21.3000     0.0439618
      21.4000     0.0428478
      21.5000     0.0419933
      21.6000     0.0414007
      21.7000     0.0407774
      21.8000     0.0401432
      21.9000     0.0394244
      22.0000     0.0386539
      22.1000     0.0377565
      22.2000     0.0366333
      22.3000     0.0353152
      22.4000     0.0332832
      22.5000     0.0310329
      22.6000     0.0261506
      22.7000     0.0231258
      22.8000     0.0294252
      22.9000     0.0372940
      23.0000     0.0468111
      23.1000     0.0525651
      23.2000     0.0548370
      23.3000     0.0546774
      23.4000     0.0533129
      23.5000     0.0519154
      23.6000     0.0505143
      23.7000     0.0490250
      23.8000     0.0475356
      23.9000     0.0460848
      24.0000     0.0446422
      24.1000     0.0432204
      24.2000     0.0418151
      24.3000     0.0404562
      24.4000     0.0391148
      24.5000     0.0378118
      24.6000     0.0365319
      24.7000     0.0352962
      24.8000     0.0340838
      24.9000     0.0329109
      25.0000     0.0317630
      25.1000     0.0306559
      25.2000     0.0295724
      25.3000     0.0285272
      25.4000     0.0275049
      25.5000     0.0265230
      25.6000     0.0255616
      25.7000     0.0246409
      25.8000     0.0237371
      25.9000     0.0228745
      26.0000     0.0220247
      26.1000     0.0212165
      26.2000     0.0204169
      26.3000     0.0196621
      26.4000     0.0189111
      26.5000     0.0182058
      26.6000     0.0175036
      26.7000     0.0168423
      26.8000     0.0161892
      26.9000     0.0155679
      27.0000     0.0149582
      27.1000     0.0143713
      27.2000     0.0137998
      27.3000     0.0595233
      27.4000      0.162953
      27.5000      0.238308
      27.6000      0.234519
      27.7000      0.230739
      27.8000      0.226874
      27.9000      0.223025
      28.0000      0.219248
      28.1000      0.215497
      28.2000      0.211806
      28.3000      0.208158
      28.4000      0.204552
      28.5000      0.201011
      28.6000      0.197492
      28.7000      0.194086
      28.8000      0.190694
      28.9000      0.187370
      29.0000      0.184075
      29.1000      0.180825
      29.2000      0.177623
      29.3000      0.174446
      29.4000      0.171340
      29.5000      0.168249
      29.6000      0.165224
      29.7000      0.162226
      29.8000      0.159271
      29.9000      0.156367
      30.0000      0.153480
      30.1000      0.150668
      30.2000      0.147869
      30.3000      0.150828
      30.4000      0.157060
      30.5000      0.161346
      30.6000      0.158492
      30.7000      0.155651
      30.8000      0.152874
      30.9000      0.150124
      31.0000      0.147409
      31.1000      0.144754
      31.2000      0.142111
      31.3000      0.139535
      31.4000      0.136981
      31.5000      0.134465
      31.6000      0.132013
      31.7000      0.129572
      31.8000      0.127189
      31.9000      0.124827
      32.0000      0.122475
      32.1000      0.120128
      32.2000      0.117792
      32.3000      0.115513
      32.4000      0.113264
      32.5000      0.111036
      32.6000      0.108896
      32.7000      0.106766
      32.8000      0.104678
      32.9000      0.102631
      33.0000      0.100594
      33.1000     0.0986746
      33.2000     0.0967781
      33.3000     0.0949035
      33.4000     0.0930809
      33.5000     0.0912683
      33.6000     0.0894978
      33.7000     0.0877593
      33.8000     0.0860288
      33.9000     0.0843547
      34.0000     0.0826951
      34.1000     0.0810636
      34.2000     0.0794781
      34.3000     0.0778994
      34.4000     0.0763503
      34.5000     0.0748374
      34.6000     0.0733311
      34.7000     0.0718578
      34.8000     0.0704034
      34.9000     0.0689551
      35.0000     0.0675596
      35.1000     0.0661751
      35.2000     0.0648056
      35.3000     0.0635198
      35.4000     0.0622396
      35.5000     0.0609777
      35.6000     0.0597538
      35.7000     0.0585352
      35.8000     0.0573413
      35.9000     0.0561774
      36.0000     0.0550184
      36.1000     0.0538894
      36.2000     0.0527837
      36.3000     0.0516825
      36.4000     0.0506148
      36.5000     0.0495648
      36.6000     0.0485191
      36.7000     0.0475098
      36.8000     0.0465140
      36.9000     0.0455224
      37.0000     0.0445684
      37.1000     0.0436250
      37.2000     0.0426853
      37.3000     0.0417840
      37.4000     0.0408911
      37.5000     0.0400019
      37.6000     0.0391500
      37.7000     0.0383055
      37.8000     0.0374645
      37.9000     0.0366596
      38.0000     0.0358621
      38.1000     0.0350679
      38.2000     0.0343072
      38.3000     0.0335546
      38.4000     0.0328051
      38.5000     0.0320860
      38.6000     0.0313765
      38.7000     0.0306700
      38.8000     0.0299902
      38.9000     0.0293222
      39.0000     0.0286570
      39.1000     0.0280141
      39.2000     0.0273859
      39.3000     0.0267603
      39.4000     0.0261522
      39.5000     0.0255620
      39.6000     0.0249742
      39.7000     0.0243988
      39.8000     0.0238451
      39.9000     0.0232937
      40.0000     0.0227492
      40.1000     0.0222310
      40.2000     0.0217150
      40.3000     0.0212012
      40.4000     0.0207148
      40.5000     0.0202317
      40.6000     0.0197507
      40.7000     0.0192900
      40.8000     0.0188383
      40.9000     0.0183885
      41.0000     0.0179518
      41.1000     0.0175298
      41.2000     0.0171095
      41.3000     0.0166957
      41.4000     0.0163026
      41.5000     0.0159111
      41.6000     0.0155214
      41.7000     0.0151523
      41.8000     0.0147875
      41.9000     0.0144242
      42.0000     0.0140742
      42.1000     0.0137350
      42.2000     0.0133973
      42.3000     0.0130646
      42.4000     0.0127494
      42.5000     0.0124356
      42.6000     0.0121231
      42.7000     0.0118265
      42.8000     0.0115350
      42.9000     0.0112448
      43.0000     0.0109624
      43.1000     0.0106922
      43.2000     0.0104232
      43.3000     0.0101554
      43.4000     0.0310029
      43.5000     0.0562016
      43.6000     0.0847678
      43.7000      0.103665
      43.8000      0.105953
      43.9000      0.104520
      44.0000      0.103091
      44.1000      0.101707
      44.2000      0.100328
      44.3000     0.0989525
      44.4000     0.0975982
      44.5000     0.0962705
      44.6000     0.0949460
      44.7000     0.0936249
      44.8000     0.0923461
      44.9000     0.0910759
      45.0000     0.0898089
      45.1000     0.0885566
      45.2000     0.0873356
      45.3000     0.0861177
      45.4000     0.0849026
      45.5000     0.0837174
      45.6000     0.0825477
      45.7000     0.0813808
      45.8000     0.0802182
      45.9000     0.0790954
      46.0000     0.0779751
      46.1000     0.0768576
      46.2000     0.0757905
      46.3000     0.0748080
      46.4000     0.0738280
      46.5000     0.0728503
      46.6000     0.0719082
      46.7000     0.0709848
      46.8000     0.0700637
      46.9000     0.0691447
      47.0000     0.0682746
      47.1000     0.0674096
      47.2000     0.0665466
      47.3000     0.0656914
      47.4000     0.0648643
      47.5000     0.0640391
      47.6000     0.0632159
      47.7000     0.0624086
      47.8000     0.0616252
      47.9000     0.0608435
      48.0000     0.0600638
      48.1000     0.0593017
      48.2000     0.0585534
      48.3000     0.0578069
      48.4000     0.0570621
      48.5000     0.0563443
      48.6000     0.0556380
      48.7000     0.0549335
      48.8000     0.0542306
      48.9000     0.0535511
      49.0000     0.0528776
      49.1000     0.0522057
      49.2000     0.0515354
      49.3000     0.0508880
      49.4000     0.0502438
      49.5000     0.0496011
      49.6000     0.0489599
      49.7000     0.0483417
      49.8000     0.0477254
      49.9000     0.0471106
      50.0000     0.0464979
      50.1000     0.0459041
      50.2000     0.0453235
      50.3000     0.0447496
      50.4000     0.0441820
      50.5000     0.0436204
      50.6000     0.0430654
      50.7000     0.0425170
      50.8000     0.0419747
      50.9000     0.0414390
      51.0000     0.0409098
      51.1000     0.0403869
      51.2000     0.0398698
      51.3000     0.0393596
      51.4000     0.0388561
      51.5000     0.0383570
      51.6000     0.0378632
      51.7000     0.0373744
      51.8000     0.0368863
      51.9000     0.0364034
      52.0000     0.0359256
      52.1000     0.0354534
      52.2000     0.0349863
      52.3000     0.0345239
      52.4000     0.0340683
      52.5000     0.0336180
      52.6000     0.0331622
      52.7000     0.0327011
      52.8000     0.0322449
      52.9000     0.0317951
      53.0000     0.0313512
      53.1000     0.0309121
      53.2000     0.0304790
      53.3000     0.0300511
      53.4000     0.0296278
      53.5000     0.0292102
      53.6000     0.0287976
      53.7000     0.0283897
      53.8000     0.0279870
      53.9000     0.0275891
      54.0000     0.0271966
      54.1000     0.0268101
      54.2000     0.0264279
      54.3000     0.0260497
      54.4000     0.0256764
      54.5000     0.0253075
      54.6000     0.0249434
      54.7000     0.0245850
      54.8000     0.0242313
      54.9000     0.0238815
      55.0000     0.0235363
      55.1000     0.0231946
      55.2000     0.0228468
      55.3000     0.0224948
      55.4000     0.0221475
      55.5000     0.0218042
      55.6000     0.0214657
      55.7000     0.0211319
      55.8000     0.0208022
      55.9000     0.0204775
      56.0000     0.0201603
      56.1000     0.0198435
      56.2000     0.0195275
      56.3000     0.0192161
      56.4000     0.0189086
      56.5000     0.0186053
      56.6000     0.0183067
      56.7000     0.0180124
      56.8000     0.0177220
      56.9000     0.0174361
      57.0000     0.0171613
      57.1000     0.0168947
      57.2000     0.0166317
      57.3000     0.0163721
      57.4000     0.0161160
      57.5000     0.0158633
      57.6000     0.0156141
      57.7000     0.0153681
      57.8000     0.0151262
      57.9000     0.0148881
      58.0000     0.0146531
      58.1000     0.0144209
      58.2000     0.0141920
      58.3000     0.0139664
      58.4000     0.0137437
      58.5000     0.0135244
      58.6000     0.0133086
      58.7000     0.0130957
      58.8000     0.0128857
      58.9000     0.0126785
      59.0000     0.0124743
      59.1000     0.0122730
      59.2000     0.0120746
      59.3000     0.0118793
      59.4000     0.0116868
      59.5000     0.0114970
      59.6000     0.0113101
      59.7000     0.0111257
      59.8000     0.0109438
      59.9000     0.0107645
      60.0000     0.0105882
      60.1000     0.0104144
      60.2000     0.0102430
      60.3000     0.0100743
      60.4000    0.00990809
      60.5000    0.00974450
      60.6000    0.00958305
      60.7000    0.00942377
      60.8000    0.00926674
      60.9000    0.00911185
      61.0000    0.00895940
      61.1000    0.00880946
      61.2000    0.00866177
      61.3000    0.00851627
      61.4000    0.00837296
      61.5000    0.00823182
      61.6000    0.00809267
      61.7000    0.00795602
      61.8000    0.00782382
      61.9000    0.00769445
      62.0000    0.00756698
      62.1000    0.00744138
      62.2000    0.00731786
      62.3000    0.00719619
      62.4000    0.00707620
      62.5000    0.00695795
      62.6000    0.00684147
      62.7000    0.00672715
      62.8000    0.00661979
      62.9000    0.00651414
      63.0000    0.00641008
      63.1000    0.00630752
      63.2000    0.00620635
      63.3000    0.00610656
      63.4000    0.00600826
      63.5000    0.00591150
      63.6000    0.00581607
      63.7000    0.00572200
      63.8000    0.00562940
      63.9000    0.00553823
      64.0000    0.00544838
      64.1000    0.00535986
      64.2000    0.00527277
      64.3000    0.00518702
      64.4000    0.00510246
      64.5000    0.00501902
      64.6000    0.00493677
      64.7000    0.00485571
      64.8000    0.00477584
      64.9000    0.00469714
      65.0000    0.00461969
      65.1000    0.00454358
      65.2000    0.00446865
      65.3000    0.00439476
      65.4000    0.00432192
      65.5000    0.00425012
      65.6000    0.00417932
      65.7000    0.00410961
      65.8000    0.00404102
      65.9000    0.00397357
      66.0000    0.00390723
      66.1000    0.00384195
      66.2000    0.00377763
      66.3000    0.00371427
      66.4000    0.00365184
      66.5000    0.00359032
      66.6000    0.00352969
      66.7000    0.00347001
      66.8000    0.00341134
      66.9000    0.00335398
      67.0000    0.00329782
      67.1000    0.00324255
      67.2000    0.00318814
      67.3000    0.00313460
      67.4000    0.00308185
      67.5000    0.00302987
      67.6000    0.00297868
      67.7000    0.00292830
      67.8000    0.00287864
      67.9000    0.00282955
      68.0000    0.00278120
      68.1000    0.00273366
      68.2000    0.00268686
      68.3000    0.00264080
      68.4000    0.00259547
      68.5000    0.00255087
      68.6000    0.00250699
      68.7000    0.00246382
      68.8000    0.00242132
      68.9000    0.00238010
      69.0000    0.00234285
      69.1000    0.00230924
      69.2000    0.00227662
      69.3000    0.00224487
      69.4000    0.00221437
      69.5000    0.00218329
      69.6000    0.00215128
      69.7000    0.00212058
      69.8000    0.00209138
      69.9000    0.00206257
      70.0000    0.00203407
      70.1000    0.00200538
      70.2000    0.00197810
      70.3000    0.00195223
      70.4000    0.00192646
      70.5000    0.00190136
      70.6000    0.00187687
      70.7000    0.00185272
      70.8000    0.00182883
      70.9000    0.00180437
      71.0000    0.00177943
      71.1000    0.00175566
      71.2000    0.00173302
      71.3000    0.00170901
      71.4000    0.00168334
      71.5000    0.00165970
      71.6000    0.00163901
      71.7000    0.00161817
      71.8000    0.00159664
      71.9000    0.00157587
      72.0000    0.00155666
