Filter Be-med
observation_date 22Sept2023
wavelength effective area
      1.00000   2.78114e-10
      1.10000   7.93773e-10
      1.20000   2.06297e-09
      1.30000   4.93135e-09
      1.40000   1.11851e-08
      1.50000   2.38505e-08
      1.60000   4.82554e-08
      1.70000   9.36187e-08
      1.80000   1.74158e-07
      1.90000   3.12737e-07
      2.00000   5.43142e-07
      2.10000   9.16356e-07
      2.20000   1.50905e-06
      2.30000   2.42235e-06
      2.40000   3.79696e-06
      2.50000   5.79274e-06
      2.60000   8.82342e-06
      2.70000   1.31275e-05
      2.80000   1.91539e-05
      2.90000   2.76538e-05
      3.00000   3.92945e-05
      3.10000   5.51079e-05
      3.20000   7.64252e-05
      3.30000   0.000104886
      3.40000   0.000142412
      3.50000   0.000191447
      3.60000   0.000256106
      3.70000   0.000338884
      3.80000   0.000446423
      3.90000   0.000584654
      4.00000   0.000760700
      4.10000   0.000984876
      4.20000    0.00127033
      4.30000    0.00163335
      4.40000    0.00209383
      4.50000    0.00267587
      4.60000    0.00340718
      4.70000    0.00433655
      4.80000    0.00551156
      4.90000    0.00691296
      5.00000    0.00889446
      5.10000     0.0112796
      5.20000     0.0143390
      5.30000     0.0180691
      5.40000     0.0227205
      5.50000     0.0286075
      5.60000     0.0349017
      5.70000     0.0448413
      5.80000     0.0519203
      5.90000     0.0782679
      6.00000      0.103829
      6.10000      0.130893
      6.20000      0.158503
      6.30000      0.183907
      6.40000      0.204581
      6.50000      0.218416
      6.60000      0.222523
      6.70000      0.225648
      6.80000      0.222171
      6.90000      0.286415
      7.00000      0.305877
      7.10000      0.317493
      7.20000      0.324892
      7.30000      0.329245
      7.40000      0.330581
      7.50000      0.329921
      7.60000      0.327427
      7.70000      0.322359
      7.80000      0.314277
      7.90000      0.306531
      8.00000      0.432346
      8.10000      0.461572
      8.20000      0.457080
      8.30000      0.450393
      8.40000      0.441724
      8.50000      0.432198
      8.60000      0.421787
      8.70000      0.410813
      8.80000      0.399246
      8.90000      0.387304
      9.00000      0.375037
      9.10000      0.362516
      9.20000      0.349834
      9.30000      0.337056
      9.40000      0.324218
      9.50000      0.311370
      9.60000      0.298592
      9.70000      0.285892
      9.80000      0.273325
      9.90000      0.260961
      10.0000      0.248829
      10.1000      0.236923
      10.2000      0.225265
      10.3000      0.213893
      10.4000      0.202829
      10.5000      0.192061
      10.6000      0.181603
      10.7000      0.171466
      10.8000      0.161676
      10.9000      0.152262
      11.0000      0.143192
      11.1000      0.134475
      11.2000      0.126112
      11.3000      0.118103
      11.4000      0.110444
      11.5000      0.103132
      11.6000     0.0961652
      11.7000     0.0895517
      11.8000     0.0832704
      11.9000     0.0772998
      12.0000     0.0715640
      12.1000     0.0663755
      12.2000     0.0626014
      12.3000     0.0583625
      12.4000     0.0539373
      12.5000     0.0497471
      12.6000     0.0458068
      12.7000     0.0421155
      12.8000     0.0386646
      12.9000     0.0354433
      13.0000     0.0324429
      13.1000     0.0296536
      13.2000     0.0270687
      13.3000     0.0246898
      13.4000     0.0224985
      13.5000     0.0204750
      13.6000     0.0186207
      13.7000     0.0169117
      13.8000     0.0153383
      13.9000     0.0138920
      14.0000     0.0125640
      14.1000     0.0113442
      14.2000     0.0102243
      14.3000    0.00919841
      14.4000    0.00826105
      14.5000    0.00741092
      14.6000    0.00664435
      14.7000    0.00594670
      14.8000    0.00531262
      14.9000    0.00473711
      15.0000    0.00421556
      15.1000    0.00374376
      15.2000    0.00332629
      15.3000    0.00295093
      15.4000    0.00261238
      15.5000    0.00230748
      15.6000    0.00203346
      15.7000    0.00179106
      15.8000    0.00157767
      15.9000    0.00138625
      16.0000    0.00121485
      16.1000    0.00106169
      16.2000   0.000929164
      16.3000   0.000812111
      16.4000   0.000707613
      16.5000   0.000614542
      16.6000   0.000533656
      16.7000   0.000463731
      16.8000   0.000401488
      16.9000   0.000346255
      17.0000   0.000298751
      17.1000   0.000258141
      17.2000   0.000222263
      17.3000   0.000190686
      17.4000   0.000164231
      17.5000   0.000141143
      17.6000   0.000120827
      17.7000   0.000103550
      17.8000   8.95395e-05
      17.9000   7.70908e-05
      18.0000   6.60274e-05
      18.1000   5.69111e-05
      18.2000   4.87472e-05
      18.3000   4.14010e-05
      18.4000   3.51424e-05
      18.5000   2.97051e-05
      18.6000   2.48501e-05
      18.7000   2.07574e-05
      18.8000   1.73315e-05
      18.9000   1.43298e-05
      19.0000   1.18990e-05
      19.1000   9.87511e-06
      19.2000   8.10497e-06
      19.3000   6.70197e-06
      19.4000   5.53415e-06
      19.5000   4.52465e-06
      19.6000   3.77012e-06
      19.7000   3.11535e-06
      19.8000   2.54900e-06
      19.9000   2.11826e-06
      20.0000   1.73500e-06
      20.1000   1.42070e-06
      20.2000   1.16957e-06
      20.3000   9.47719e-07
      20.4000   7.78140e-07
      20.5000   6.33256e-07
      20.6000   5.10371e-07
      20.7000   4.17878e-07
      20.8000   3.35413e-07
      20.9000   2.72115e-07
      21.0000   2.19426e-07
      21.1000   1.74709e-07
      21.2000   1.41782e-07
      21.3000   1.12289e-07
      21.4000   9.04042e-08
      21.5000   7.19008e-08
      21.6000   5.68178e-08
      21.7000   4.54335e-08
      21.8000   3.52923e-08
      21.9000   2.82951e-08
      22.0000   2.20083e-08
      22.1000   1.73557e-08
      22.2000   1.35491e-08
      22.3000   1.04772e-08
      22.4000   8.10487e-09
      22.5000   5.96217e-09
      22.6000   4.29191e-09
      22.7000   2.90674e-09
      22.8000   2.80701e-09
      22.9000   2.79751e-09
      23.0000   2.84406e-09
      23.1000   2.65142e-09
      23.2000   2.23368e-09
      23.3000   1.82414e-09
      23.4000   1.41891e-09
      23.5000   1.12747e-09
      23.6000   8.64523e-10
      23.7000   6.87974e-10
      23.8000   5.21118e-10
      23.9000   4.14534e-10
      24.0000   3.13528e-10
      24.1000   2.47357e-10
      24.2000   1.86673e-10
      24.3000   1.46213e-10
      24.4000   1.10135e-10
      24.5000   8.56773e-11
      24.6000   6.43693e-11
      24.7000   4.97831e-11
      24.8000   3.72886e-11
      24.9000   2.86937e-11
      25.0000   2.14062e-11
      25.1000   1.64070e-11
      25.2000   1.21790e-11
      25.3000   9.30724e-12
      25.4000   6.86559e-12
      25.5000   5.23797e-12
      25.6000   3.83496e-12
      25.7000   2.92455e-12
      25.8000   2.12203e-12
      25.9000   1.61956e-12
      26.0000   1.16280e-12
      26.1000   8.89225e-13
      26.2000   6.30688e-13
      26.3000   4.83855e-13
      26.4000   3.38499e-13
      26.5000   2.60808e-13
      26.6000   1.83537e-13
      26.7000   1.39176e-13
      26.8000   9.89000e-14
      26.9000   7.34870e-14
      27.0000   5.27960e-14
      27.1000   3.83513e-14
      27.2000   2.78811e-14
      27.3000   1.97860e-14
      27.4000   1.46343e-14
      27.5000   1.01674e-14
      27.6000   7.60069e-15
      27.7000   5.12147e-15
      27.8000   3.87947e-15
      27.9000   2.64415e-15
      28.0000   1.95030e-15
      28.1000   1.36428e-15
      28.2000   9.65771e-16
      28.3000   6.92473e-16
      28.4000   4.70676e-16
      28.5000   3.45423e-16
      28.6000   2.25583e-16
      28.7000   1.69206e-16
      28.8000   1.13140e-16
      28.9000   8.13397e-17
      29.0000   5.65381e-17
      29.1000   3.83324e-17
      29.2000   2.75633e-17
      29.3000   1.76977e-17
      29.4000   1.31103e-17
      29.5000   8.54863e-18
      29.6000   6.08434e-18
      29.7000   4.17897e-18
      29.8000   2.75521e-18
      29.9000   1.97489e-18
      30.0000   1.21722e-18
      30.1000   9.04082e-19
      30.2000   5.92713e-19
      30.3000   4.04680e-19
      30.4000   2.87300e-19
      30.5000   1.84578e-19
      30.6000   1.34412e-19
      30.7000   8.45312e-20
      30.8000   5.85220e-20
      30.9000   3.97444e-20
      31.0000   2.46784e-20
      31.1000   1.78529e-20
      31.2000   1.10665e-20
      31.3000   7.78571e-21
      31.4000   5.26486e-21
      31.5000   3.26646e-21
      31.6000   2.35025e-21
      31.7000   1.43933e-21
      31.8000   9.97038e-22
      31.9000   6.73681e-22
      32.0000   4.06074e-22
      32.1000   2.95970e-22
      32.2000   1.86505e-22
      32.3000   1.25997e-22
      32.4000   8.71541e-23
      32.5000   5.12831e-23
      32.6000   3.78018e-23
      32.7000   2.43986e-23
      32.8000   1.54885e-23
      32.9000   1.09355e-23
      33.0000   6.40904e-24
      33.1000   4.53971e-24
      33.2000   3.03726e-24
      33.3000   1.77800e-24
      33.4000   1.29022e-24
      33.5000   8.05206e-25
      33.6000   5.08491e-25
      33.7000   3.54732e-25
      33.8000   2.01828e-25
      33.9000   1.41488e-25
      34.0000   9.41575e-26
      34.1000   5.25804e-26
      34.2000   3.82883e-26
      34.3000   2.40712e-26
      34.4000   1.42544e-26
      34.5000   1.00686e-26
      34.6000   5.90528e-27
      34.7000   3.76747e-27
      34.8000   2.57241e-27
      34.9000   1.38367e-27
      35.0000   9.70130e-28
      35.1000   6.38239e-28
      35.2000   3.33886e-28
      35.3000   2.43683e-28
      35.4000   1.53958e-28
      35.5000   8.34643e-29
      35.6000   5.97390e-29
      35.7000   3.61400e-29
      35.8000   2.03698e-29
      35.9000   1.43019e-29
      36.0000   8.26634e-30
      36.1000   4.85372e-30
      36.2000   3.34598e-30
      36.3000   1.84630e-30
      36.4000   1.12963e-30
      36.5000   7.65774e-31
      36.6000   4.03896e-31
      36.7000   2.56838e-31
      36.8000   1.71609e-31
      36.9000   8.68453e-32
      37.0000   5.70511e-32
      37.1000   3.76851e-32
      37.2000   1.84236e-32
      37.3000   1.23785e-32
      37.4000   8.11318e-33
      37.5000   3.87133e-33
      37.6000   2.62318e-33
      37.7000   1.71328e-33
      37.8000   8.08384e-34
      37.9000   5.42854e-34
      38.0000   3.54865e-34
      38.1000   1.67906e-34
      38.2000   1.09603e-34
      38.3000   7.20194e-35
      38.4000   3.46427e-35
      38.5000   2.15588e-35
      38.6000   1.42999e-35
      38.7000   7.08095e-36
      38.8000   4.12900e-36
      38.9000   2.77472e-36
      39.0000   1.42786e-36
      39.1000   7.69309e-37
      39.2000   5.25266e-37
      39.3000   2.82563e-37
      39.4000   1.39064e-37
      39.5000   9.63774e-38
      39.6000   5.39291e-38
      39.7000   2.36612e-38
      39.8000   1.67226e-38
      39.9000   9.82221e-39
      40.0000   3.88300e-39
      40.1000   2.80130e-39
      40.2000   1.72558e-39
      40.3000   6.55951e-40
      40.4000   4.53183e-40
      40.5000   2.91924e-40
      40.6000   1.31555e-40
      40.7000   7.06212e-41
      40.8000   4.74031e-41
      40.9000   2.43139e-41
      41.0000   1.05756e-41
      41.1000   7.36803e-42
      41.2000   4.18288e-42
      41.3000   1.52041e-42
      41.4000   1.09301e-42
      41.5000   6.74025e-43
      41.6000   2.55036e-43
      41.7000   1.52742e-43
      41.8000   9.94922e-44
      41.9000   4.76441e-44
      42.0000   2.24208e-44
      42.1000   1.54143e-44
      42.2000   7.00649e-45
      42.3000   2.80260e-45
      42.4000   2.80260e-45
      42.5000   2.80260e-45
      42.6000  -2.80260e-45
      42.7000       0.00000
      42.8000       0.00000
      42.9000       0.00000
      43.0000       0.00000
      43.1000       0.00000
      43.2000       0.00000
      43.3000       0.00000
      43.4000       0.00000
      43.5000       0.00000
      43.6000       0.00000
      43.7000       0.00000
      43.8000       0.00000
      43.9000       0.00000
      44.0000       0.00000
      44.1000       0.00000
      44.2000       0.00000
      44.3000       0.00000
      44.4000       0.00000
      44.5000       0.00000
      44.6000       0.00000
      44.7000       0.00000
      44.8000       0.00000
      44.9000       0.00000
      45.0000       0.00000
      45.1000       0.00000
      45.2000       0.00000
      45.3000       0.00000
      45.4000       0.00000
      45.5000       0.00000
      45.6000       0.00000
      45.7000       0.00000
      45.8000       0.00000
      45.9000       0.00000
      46.0000       0.00000
      46.1000       0.00000
      46.2000       0.00000
      46.3000       0.00000
      46.4000       0.00000
      46.5000       0.00000
      46.6000       0.00000
      46.7000       0.00000
      46.8000       0.00000
      46.9000       0.00000
      47.0000       0.00000
      47.1000       0.00000
      47.2000       0.00000
      47.3000       0.00000
      47.4000       0.00000
      47.5000       0.00000
      47.6000       0.00000
      47.7000       0.00000
      47.8000       0.00000
      47.9000       0.00000
      48.0000       0.00000
      48.1000       0.00000
      48.2000       0.00000
      48.3000       0.00000
      48.4000       0.00000
      48.5000       0.00000
      48.6000       0.00000
      48.7000       0.00000
      48.8000       0.00000
      48.9000       0.00000
      49.0000       0.00000
      49.1000       0.00000
      49.2000       0.00000
      49.3000       0.00000
      49.4000       0.00000
      49.5000       0.00000
      49.6000       0.00000
      49.7000       0.00000
      49.8000       0.00000
      49.9000       0.00000
      50.0000       0.00000
      50.1000       0.00000
      50.2000       0.00000
      50.3000       0.00000
      50.4000       0.00000
      50.5000       0.00000
      50.6000       0.00000
      50.7000       0.00000
      50.8000       0.00000
      50.9000       0.00000
      51.0000       0.00000
      51.1000       0.00000
      51.2000       0.00000
      51.3000       0.00000
      51.4000       0.00000
      51.5000       0.00000
      51.6000       0.00000
      51.7000       0.00000
      51.8000       0.00000
      51.9000       0.00000
      52.0000       0.00000
      52.1000       0.00000
      52.2000       0.00000
      52.3000       0.00000
      52.4000       0.00000
      52.5000       0.00000
      52.6000       0.00000
      52.7000       0.00000
      52.8000       0.00000
      52.9000       0.00000
      53.0000       0.00000
      53.1000       0.00000
      53.2000       0.00000
      53.3000       0.00000
      53.4000       0.00000
      53.5000       0.00000
      53.6000       0.00000
      53.7000       0.00000
      53.8000       0.00000
      53.9000       0.00000
      54.0000       0.00000
      54.1000       0.00000
      54.2000       0.00000
      54.3000       0.00000
      54.4000       0.00000
      54.5000       0.00000
      54.6000       0.00000
      54.7000       0.00000
      54.8000       0.00000
      54.9000       0.00000
      55.0000       0.00000
      55.1000       0.00000
      55.2000       0.00000
      55.3000       0.00000
      55.4000       0.00000
      55.5000       0.00000
      55.6000       0.00000
      55.7000       0.00000
      55.8000       0.00000
      55.9000       0.00000
      56.0000       0.00000
      56.1000       0.00000
      56.2000       0.00000
      56.3000       0.00000
      56.4000       0.00000
      56.5000       0.00000
      56.6000       0.00000
      56.7000       0.00000
      56.8000       0.00000
      56.9000       0.00000
      57.0000       0.00000
      57.1000       0.00000
      57.2000       0.00000
      57.3000       0.00000
      57.4000       0.00000
      57.5000       0.00000
      57.6000       0.00000
      57.7000       0.00000
      57.8000       0.00000
      57.9000       0.00000
      58.0000       0.00000
      58.1000       0.00000
      58.2000       0.00000
      58.3000       0.00000
      58.4000       0.00000
      58.5000       0.00000
      58.6000       0.00000
      58.7000       0.00000
      58.8000       0.00000
      58.9000       0.00000
      59.0000       0.00000
      59.1000       0.00000
      59.2000       0.00000
      59.3000       0.00000
      59.4000       0.00000
      59.5000       0.00000
      59.6000       0.00000
      59.7000       0.00000
      59.8000       0.00000
      59.9000       0.00000
      60.0000       0.00000
      60.1000       0.00000
      60.2000       0.00000
      60.3000       0.00000
      60.4000       0.00000
      60.5000       0.00000
      60.6000       0.00000
      60.7000       0.00000
      60.8000       0.00000
      60.9000       0.00000
      61.0000       0.00000
      61.1000       0.00000
      61.2000       0.00000
      61.3000       0.00000
      61.4000       0.00000
      61.5000       0.00000
      61.6000       0.00000
      61.7000       0.00000
      61.8000       0.00000
      61.9000       0.00000
      62.0000       0.00000
      62.1000       0.00000
      62.2000       0.00000
      62.3000       0.00000
      62.4000       0.00000
      62.5000       0.00000
      62.6000       0.00000
      62.7000       0.00000
      62.8000       0.00000
      62.9000       0.00000
      63.0000       0.00000
      63.1000       0.00000
      63.2000       0.00000
      63.3000       0.00000
      63.4000       0.00000
      63.5000       0.00000
      63.6000       0.00000
      63.7000       0.00000
      63.8000       0.00000
      63.9000       0.00000
      64.0000       0.00000
      64.1000       0.00000
      64.2000       0.00000
      64.3000       0.00000
      64.4000       0.00000
      64.5000       0.00000
      64.6000       0.00000
      64.7000       0.00000
      64.8000       0.00000
      64.9000       0.00000
      65.0000       0.00000
      65.1000       0.00000
      65.2000       0.00000
      65.3000       0.00000
      65.4000       0.00000
      65.5000       0.00000
      65.6000       0.00000
      65.7000       0.00000
      65.8000       0.00000
      65.9000       0.00000
      66.0000       0.00000
      66.1000       0.00000
      66.2000       0.00000
      66.3000       0.00000
      66.4000       0.00000
      66.5000       0.00000
      66.6000       0.00000
      66.7000       0.00000
      66.8000       0.00000
      66.9000       0.00000
      67.0000       0.00000
      67.1000       0.00000
      67.2000       0.00000
      67.3000       0.00000
      67.4000       0.00000
      67.5000       0.00000
      67.6000       0.00000
      67.7000       0.00000
      67.8000       0.00000
      67.9000       0.00000
      68.0000       0.00000
      68.1000       0.00000
      68.2000       0.00000
      68.3000       0.00000
      68.4000       0.00000
      68.5000       0.00000
      68.6000       0.00000
      68.7000       0.00000
      68.8000       0.00000
      68.9000       0.00000
      69.0000       0.00000
      69.1000       0.00000
      69.2000       0.00000
      69.3000       0.00000
      69.4000       0.00000
      69.5000       0.00000
      69.6000       0.00000
      69.7000       0.00000
      69.8000       0.00000
      69.9000       0.00000
      70.0000       0.00000
      70.1000       0.00000
      70.2000       0.00000
      70.3000       0.00000
      70.4000       0.00000
      70.5000       0.00000
      70.6000       0.00000
      70.7000       0.00000
      70.8000       0.00000
      70.9000       0.00000
      71.0000       0.00000
      71.1000       0.00000
      71.2000       0.00000
      71.3000       0.00000
      71.4000       0.00000
      71.5000       0.00000
      71.6000       0.00000
      71.7000       0.00000
      71.8000       0.00000
      71.9000       0.00000
      72.0000       0.00000
