Filter Be-med
observation_date 7-an-224 0
wavelength effective area
      1.00000   2.78113e-10
      1.10000   7.93771e-10
      1.20000   2.06297e-09
      1.30000   4.93133e-09
      1.40000   1.11850e-08
      1.50000   2.38504e-08
      1.60000   4.82549e-08
      1.70000   9.36177e-08
      1.80000   1.74156e-07
      1.90000   3.12732e-07
      2.00000   5.43133e-07
      2.10000   9.16337e-07
      2.20000   1.50901e-06
      2.30000   2.42228e-06
      2.40000   3.79685e-06
      2.50000   5.79254e-06
      2.60000   8.82308e-06
      2.70000   1.31269e-05
      2.80000   1.91530e-05
      2.90000   2.76522e-05
      3.00000   3.92921e-05
      3.10000   5.51042e-05
      3.20000   7.64196e-05
      3.30000   0.000104878
      3.40000   0.000142400
      3.50000   0.000191429
      3.60000   0.000256079
      3.70000   0.000338846
      3.80000   0.000446368
      3.90000   0.000584576
      4.00000   0.000760591
      4.10000   0.000984724
      4.20000    0.00127012
      4.30000    0.00163306
      4.40000    0.00209343
      4.50000    0.00267533
      4.60000    0.00340644
      4.70000    0.00433554
      4.80000    0.00551020
      4.90000    0.00691115
      5.00000    0.00889198
      5.10000     0.0112763
      5.20000     0.0143345
      5.30000     0.0180631
      5.40000     0.0227126
      5.50000     0.0285970
      5.60000     0.0348882
      5.70000     0.0448231
      5.80000     0.0518980
      5.90000     0.0782326
      6.00000      0.103780
      6.10000      0.130828
      6.20000      0.158421
      6.30000      0.183807
      6.40000      0.204465
      6.50000      0.218285
      6.60000      0.222385
      6.70000      0.225501
      6.80000      0.222021
      6.90000      0.286212
      7.00000      0.305651
      7.10000      0.317249
      7.20000      0.324632
      7.30000      0.328971
      7.40000      0.330295
      7.50000      0.329625
      7.60000      0.327122
      7.70000      0.322047
      7.80000      0.313961
      7.90000      0.306212
      8.00000      0.431879
      8.10000      0.461055
      8.20000      0.456550
      8.30000      0.449853
      8.40000      0.441175
      8.50000      0.431643
      8.60000      0.421227
      8.70000      0.410250
      8.80000      0.398680
      8.90000      0.386738
      9.00000      0.374471
      9.10000      0.361952
      9.20000      0.349272
      9.30000      0.336498
      9.40000      0.323665
      9.50000      0.310822
      9.60000      0.298052
      9.70000      0.285359
      9.80000      0.272800
      9.90000      0.260446
      10.0000      0.248324
      10.1000      0.236429
      10.2000      0.224782
      10.3000      0.213422
      10.4000      0.202370
      10.5000      0.191615
      10.6000      0.181169
      10.7000      0.171046
      10.8000      0.161270
      10.9000      0.151869
      11.0000      0.142814
      11.1000      0.134111
      11.2000      0.125761
      11.3000      0.117766
      11.4000      0.110122
      11.5000      0.102824
      11.6000     0.0958707
      11.7000     0.0892709
      11.8000     0.0830031
      11.9000     0.0770458
      12.0000     0.0713235
      12.1000     0.0661473
      12.2000     0.0623813
      12.3000     0.0581526
      12.4000     0.0537391
      12.5000     0.0495602
      12.6000     0.0456309
      12.7000     0.0419503
      12.8000     0.0385096
      12.9000     0.0352982
      13.0000     0.0323073
      13.1000     0.0295270
      13.2000     0.0269507
      13.3000     0.0245800
      13.4000     0.0223964
      13.5000     0.0203802
      13.6000     0.0185327
      13.7000     0.0168302
      13.8000     0.0152630
      13.9000     0.0138225
      14.0000     0.0124999
      14.1000     0.0112852
      14.2000     0.0101701
      14.3000    0.00914876
      14.4000    0.00821562
      14.5000    0.00736941
      14.6000    0.00660644
      14.7000    0.00591214
      14.8000    0.00528119
      14.9000    0.00470857
      15.0000    0.00418970
      15.1000    0.00372038
      15.2000    0.00330514
      15.3000    0.00293184
      15.4000    0.00259518
      15.5000    0.00229202
      15.6000    0.00201960
      15.7000    0.00177864
      15.8000    0.00156654
      15.9000    0.00137631
      16.0000    0.00120599
      16.1000    0.00105382
      16.2000   0.000922157
      16.3000   0.000805886
      16.4000   0.000702100
      16.5000   0.000609677
      16.6000   0.000529363
      16.7000   0.000459941
      16.8000   0.000398154
      16.9000   0.000343334
      17.0000   0.000296191
      17.1000   0.000255894
      17.2000   0.000220298
      17.3000   0.000188974
      17.4000   0.000162735
      17.5000   0.000139838
      17.6000   0.000119694
      17.7000   0.000102566
      17.8000   8.86768e-05
      17.9000   7.63382e-05
      18.0000   6.53743e-05
      18.1000   5.63408e-05
      18.2000   4.82523e-05
      18.3000   4.09751e-05
      18.4000   3.47759e-05
      18.5000   2.93912e-05
      18.6000   2.45839e-05
      18.7000   2.05321e-05
      18.8000   1.71408e-05
      18.9000   1.41699e-05
      19.0000   1.17644e-05
      19.1000   9.76195e-06
      19.2000   8.01087e-06
      19.3000   6.62313e-06
      19.4000   5.46819e-06
      19.5000   4.47003e-06
      19.6000   3.72402e-06
      19.7000   3.07677e-06
      19.8000   2.51704e-06
      19.9000   2.09136e-06
      20.0000   1.71269e-06
      20.1000   1.40221e-06
      20.2000   1.15416e-06
      20.3000   9.35077e-07
      20.4000   7.67634e-07
      20.5000   6.24602e-07
      20.6000   5.03312e-07
      20.7000   4.12028e-07
      20.8000   3.30661e-07
      20.9000   2.68214e-07
      21.0000   2.16243e-07
      21.1000   1.72145e-07
      21.2000   1.39676e-07
      21.3000   1.10602e-07
      21.4000   8.90302e-08
      21.5000   7.07953e-08
      21.6000   5.59342e-08
      21.7000   4.47188e-08
      21.8000   3.47307e-08
      21.9000   2.78397e-08
      22.0000   2.16500e-08
      22.1000   1.70700e-08
      22.2000   1.33235e-08
      22.3000   1.03008e-08
      22.4000   7.96689e-09
      22.5000   5.85954e-09
      22.6000   4.21722e-09
      22.7000   2.85775e-09
      22.8000   2.76614e-09
      22.9000   2.76104e-09
      23.0000   2.80702e-09
      23.1000   2.61669e-09
      23.2000   2.20387e-09
      23.3000   1.79952e-09
      23.4000   1.39956e-09
      23.5000   1.11193e-09
      23.6000   8.52478e-10
      23.7000   6.78287e-10
      23.8000   5.13701e-10
      23.9000   4.08572e-10
      24.0000   3.08972e-10
      24.1000   2.43724e-10
      24.2000   1.83903e-10
      24.3000   1.44020e-10
      24.4000   1.08467e-10
      24.5000   8.43660e-11
      24.6000   6.33740e-11
      24.7000   4.90055e-11
      24.8000   3.67002e-11
      24.9000   2.82363e-11
      25.0000   2.10615e-11
      25.1000   1.61401e-11
      25.2000   1.19790e-11
      25.3000   9.15283e-12
      25.4000   6.75055e-12
      25.5000   5.14934e-12
      25.6000   3.76944e-12
      25.7000   2.87410e-12
      25.8000   2.08507e-12
      25.9000   1.59108e-12
      26.0000   1.14216e-12
      26.1000   8.73292e-13
      26.2000   6.19281e-13
      26.3000   4.75021e-13
      26.4000   3.32261e-13
      26.5000   2.55957e-13
      26.6000   1.80091e-13
      26.7000   1.36539e-13
      26.8000   9.70089e-14
      26.9000   7.20689e-14
      27.0000   5.17678e-14
      27.1000   3.75976e-14
      27.2000   2.73282e-14
      27.3000   1.93901e-14
      27.4000   1.43389e-14
      27.5000   9.96028e-15
      27.6000   7.44447e-15
      27.7000   5.01527e-15
      27.8000   3.79831e-15
      27.9000   2.58834e-15
      28.0000   1.90877e-15
      28.1000   1.33498e-15
      28.2000   9.44845e-16
      28.3000   6.77338e-16
      28.4000   4.60299e-16
      28.5000   3.37742e-16
      28.6000   2.20523e-16
      28.7000   1.65379e-16
      28.8000   1.10559e-16
      28.9000   7.94681e-17
      29.0000   5.52261e-17
      29.1000   3.74353e-17
      29.2000   2.69128e-17
      29.3000   1.72765e-17
      29.4000   1.27957e-17
      29.5000   8.34176e-18
      29.6000   5.93589e-18
      29.7000   4.07616e-18
      29.8000   2.68687e-18
      29.9000   1.92550e-18
      30.0000   1.18653e-18
      30.1000   8.81100e-19
      30.2000   5.77523e-19
      30.3000   3.94224e-19
      30.4000   2.79817e-19
      30.5000   1.79731e-19
      30.6000   1.30854e-19
      30.7000   8.22760e-20
      30.8000   5.69482e-20
      30.9000   3.86671e-20
      31.0000   2.40042e-20
      31.1000   1.73613e-20
      31.2000   1.07593e-20
      31.3000   7.56792e-21
      31.4000   5.11643e-21
      31.5000   3.17366e-21
      31.6000   2.28295e-21
      31.7000   1.39780e-21
      31.8000   9.68046e-22
      31.9000   6.53941e-22
      32.0000   3.94084e-22
      32.1000   2.87165e-22
      32.2000   1.80914e-22
      32.3000   1.22191e-22
      32.4000   8.45015e-23
      32.5000   4.97105e-23
      32.6000   3.66342e-23
      32.7000   2.36397e-23
      32.8000   1.50033e-23
      32.9000   1.05904e-23
      33.0000   6.20535e-24
      33.1000   4.39445e-24
      33.2000   2.93943e-24
      33.3000   1.72036e-24
      33.4000   1.24812e-24
      33.5000   7.78759e-25
      33.6000   4.91680e-25
      33.7000   3.42928e-25
      33.8000   1.95068e-25
      33.9000   1.36718e-25
      34.0000   9.09629e-26
      34.1000   5.07850e-26
      34.2000   3.69724e-26
      34.3000   2.32387e-26
      34.4000   1.37582e-26
      34.5000   9.71594e-27
      34.6000   5.69711e-27
      34.7000   3.63382e-27
      34.8000   2.48058e-27
      34.9000   1.33396e-27
      35.0000   9.35061e-28
      35.1000   6.15023e-28
      35.2000   3.21665e-28
      35.3000   2.34708e-28
      35.4000   1.48253e-28
      35.5000   8.03521e-29
      35.6000   5.74978e-29
      35.7000   3.47759e-29
      35.8000   1.95962e-29
      35.9000   1.37554e-29
      36.0000   7.94855e-30
      36.1000   4.66599e-30
      36.2000   3.21578e-30
      36.3000   1.77402e-30
      36.4000   1.08514e-30
      36.5000   7.35435e-31
      36.6000   3.87799e-31
      36.7000   2.46540e-31
      36.8000   1.64687e-31
      36.9000   8.33217e-32
      37.0000   5.47226e-32
      37.1000   3.61379e-32
      37.2000   1.76628e-32
      37.3000   1.18643e-32
      37.4000   7.77422e-33
      37.5000   3.70864e-33
      37.6000   2.51230e-33
      37.7000   1.64044e-33
      37.8000   7.73816e-34
      37.9000   5.19506e-34
      38.0000   3.39515e-34
      38.1000   1.60601e-34
      38.2000   1.04807e-34
      38.3000   6.88504e-35
      38.4000   3.31097e-35
      38.5000   2.05993e-35
      38.6000   1.36599e-35
      38.7000   6.76224e-36
      38.8000   3.94211e-36
      38.9000   2.64843e-36
      39.0000   1.36250e-36
      39.1000   7.33900e-37
      39.2000   5.00954e-37
      39.3000   2.69412e-37
      39.4000   1.32556e-37
      39.5000   9.18421e-38
      39.6000   5.13774e-38
      39.7000   2.25355e-38
      39.8000   1.59226e-38
      39.9000   9.34977e-39
      40.0000   3.69520e-39
      40.1000   2.66508e-39
      40.2000   1.64122e-39
      40.3000   6.23711e-40
      40.4000   4.30786e-40
      40.5000   2.77418e-40
      40.6000   1.24983e-40
      40.7000   6.70746e-41
      40.8000   4.50111e-41
      40.9000   2.30766e-41
      41.0000   1.00347e-41
      41.1000   6.99108e-42
      41.2000   3.96427e-42
      41.3000   1.44053e-42
      41.4000   1.03836e-42
      41.5000   6.36190e-43
      41.6000   2.42425e-43
      41.7000   1.47136e-43
      41.8000   9.52883e-44
      41.9000   4.48416e-44
      42.0000   1.96182e-44
      42.1000   1.54143e-44
      42.2000   7.00649e-45
      42.3000   2.80260e-45
      42.4000   2.80260e-45
      42.5000   2.80260e-45
      42.6000  -2.80260e-45
      42.7000       0.00000
      42.8000       0.00000
      42.9000       0.00000
      43.0000       0.00000
      43.1000       0.00000
      43.2000       0.00000
      43.3000       0.00000
      43.4000       0.00000
      43.5000       0.00000
      43.6000       0.00000
      43.7000       0.00000
      43.8000       0.00000
      43.9000       0.00000
      44.0000       0.00000
      44.1000       0.00000
      44.2000       0.00000
      44.3000       0.00000
      44.4000       0.00000
      44.5000       0.00000
      44.6000       0.00000
      44.7000       0.00000
      44.8000       0.00000
      44.9000       0.00000
      45.0000       0.00000
      45.1000       0.00000
      45.2000       0.00000
      45.3000       0.00000
      45.4000       0.00000
      45.5000       0.00000
      45.6000       0.00000
      45.7000       0.00000
      45.8000       0.00000
      45.9000       0.00000
      46.0000       0.00000
      46.1000       0.00000
      46.2000       0.00000
      46.3000       0.00000
      46.4000       0.00000
      46.5000       0.00000
      46.6000       0.00000
      46.7000       0.00000
      46.8000       0.00000
      46.9000       0.00000
      47.0000       0.00000
      47.1000       0.00000
      47.2000       0.00000
      47.3000       0.00000
      47.4000       0.00000
      47.5000       0.00000
      47.6000       0.00000
      47.7000       0.00000
      47.8000       0.00000
      47.9000       0.00000
      48.0000       0.00000
      48.1000       0.00000
      48.2000       0.00000
      48.3000       0.00000
      48.4000       0.00000
      48.5000       0.00000
      48.6000       0.00000
      48.7000       0.00000
      48.8000       0.00000
      48.9000       0.00000
      49.0000       0.00000
      49.1000       0.00000
      49.2000       0.00000
      49.3000       0.00000
      49.4000       0.00000
      49.5000       0.00000
      49.6000       0.00000
      49.7000       0.00000
      49.8000       0.00000
      49.9000       0.00000
      50.0000       0.00000
      50.1000       0.00000
      50.2000       0.00000
      50.3000       0.00000
      50.4000       0.00000
      50.5000       0.00000
      50.6000       0.00000
      50.7000       0.00000
      50.8000       0.00000
      50.9000       0.00000
      51.0000       0.00000
      51.1000       0.00000
      51.2000       0.00000
      51.3000       0.00000
      51.4000       0.00000
      51.5000       0.00000
      51.6000       0.00000
      51.7000       0.00000
      51.8000       0.00000
      51.9000       0.00000
      52.0000       0.00000
      52.1000       0.00000
      52.2000       0.00000
      52.3000       0.00000
      52.4000       0.00000
      52.5000       0.00000
      52.6000       0.00000
      52.7000       0.00000
      52.8000       0.00000
      52.9000       0.00000
      53.0000       0.00000
      53.1000       0.00000
      53.2000       0.00000
      53.3000       0.00000
      53.4000       0.00000
      53.5000       0.00000
      53.6000       0.00000
      53.7000       0.00000
      53.8000       0.00000
      53.9000       0.00000
      54.0000       0.00000
      54.1000       0.00000
      54.2000       0.00000
      54.3000       0.00000
      54.4000       0.00000
      54.5000       0.00000
      54.6000       0.00000
      54.7000       0.00000
      54.8000       0.00000
      54.9000       0.00000
      55.0000       0.00000
      55.1000       0.00000
      55.2000       0.00000
      55.3000       0.00000
      55.4000       0.00000
      55.5000       0.00000
      55.6000       0.00000
      55.7000       0.00000
      55.8000       0.00000
      55.9000       0.00000
      56.0000       0.00000
      56.1000       0.00000
      56.2000       0.00000
      56.3000       0.00000
      56.4000       0.00000
      56.5000       0.00000
      56.6000       0.00000
      56.7000       0.00000
      56.8000       0.00000
      56.9000       0.00000
      57.0000       0.00000
      57.1000       0.00000
      57.2000       0.00000
      57.3000       0.00000
      57.4000       0.00000
      57.5000       0.00000
      57.6000       0.00000
      57.7000       0.00000
      57.8000       0.00000
      57.9000       0.00000
      58.0000       0.00000
      58.1000       0.00000
      58.2000       0.00000
      58.3000       0.00000
      58.4000       0.00000
      58.5000       0.00000
      58.6000       0.00000
      58.7000       0.00000
      58.8000       0.00000
      58.9000       0.00000
      59.0000       0.00000
      59.1000       0.00000
      59.2000       0.00000
      59.3000       0.00000
      59.4000       0.00000
      59.5000       0.00000
      59.6000       0.00000
      59.7000       0.00000
      59.8000       0.00000
      59.9000       0.00000
      60.0000       0.00000
      60.1000       0.00000
      60.2000       0.00000
      60.3000       0.00000
      60.4000       0.00000
      60.5000       0.00000
      60.6000       0.00000
      60.7000       0.00000
      60.8000       0.00000
      60.9000       0.00000
      61.0000       0.00000
      61.1000       0.00000
      61.2000       0.00000
      61.3000       0.00000
      61.4000       0.00000
      61.5000       0.00000
      61.6000       0.00000
      61.7000       0.00000
      61.8000       0.00000
      61.9000       0.00000
      62.0000       0.00000
      62.1000       0.00000
      62.2000       0.00000
      62.3000       0.00000
      62.4000       0.00000
      62.5000       0.00000
      62.6000       0.00000
      62.7000       0.00000
      62.8000       0.00000
      62.9000       0.00000
      63.0000       0.00000
      63.1000       0.00000
      63.2000       0.00000
      63.3000       0.00000
      63.4000       0.00000
      63.5000       0.00000
      63.6000       0.00000
      63.7000       0.00000
      63.8000       0.00000
      63.9000       0.00000
      64.0000       0.00000
      64.1000       0.00000
      64.2000       0.00000
      64.3000       0.00000
      64.4000       0.00000
      64.5000       0.00000
      64.6000       0.00000
      64.7000       0.00000
      64.8000       0.00000
      64.9000       0.00000
      65.0000       0.00000
      65.1000       0.00000
      65.2000       0.00000
      65.3000       0.00000
      65.4000       0.00000
      65.5000       0.00000
      65.6000       0.00000
      65.7000       0.00000
      65.8000       0.00000
      65.9000       0.00000
      66.0000       0.00000
      66.1000       0.00000
      66.2000       0.00000
      66.3000       0.00000
      66.4000       0.00000
      66.5000       0.00000
      66.6000       0.00000
      66.7000       0.00000
      66.8000       0.00000
      66.9000       0.00000
      67.0000       0.00000
      67.1000       0.00000
      67.2000       0.00000
      67.3000       0.00000
      67.4000       0.00000
      67.5000       0.00000
      67.6000       0.00000
      67.7000       0.00000
      67.8000       0.00000
      67.9000       0.00000
      68.0000       0.00000
      68.1000       0.00000
      68.2000       0.00000
      68.3000       0.00000
      68.4000       0.00000
      68.5000       0.00000
      68.6000       0.00000
      68.7000       0.00000
      68.8000       0.00000
      68.9000       0.00000
      69.0000       0.00000
      69.1000       0.00000
      69.2000       0.00000
      69.3000       0.00000
      69.4000       0.00000
      69.5000       0.00000
      69.6000       0.00000
      69.7000       0.00000
      69.8000       0.00000
      69.9000       0.00000
      70.0000       0.00000
      70.1000       0.00000
      70.2000       0.00000
      70.3000       0.00000
      70.4000       0.00000
      70.5000       0.00000
      70.6000       0.00000
      70.7000       0.00000
      70.8000       0.00000
      70.9000       0.00000
      71.0000       0.00000
      71.1000       0.00000
      71.2000       0.00000
      71.3000       0.00000
      71.4000       0.00000
      71.5000       0.00000
      71.6000       0.00000
      71.7000       0.00000
      71.8000       0.00000
      71.9000       0.00000
      72.0000       0.00000
