Filter Be-med
observation_date 22-Sept-2008 22:40:45
wavelength effective area 
      1.00000   2.78115e-10
      1.10000   7.93779e-10
      1.20000   2.06299e-09
      1.30000   4.93141e-09
      1.40000   1.11852e-08
      1.50000   2.38510e-08
      1.60000   4.82564e-08
      1.70000   9.36210e-08
      1.80000   1.74163e-07
      1.90000   3.12748e-07
      2.00000   5.43165e-07
      2.10000   9.16400e-07
      2.20000   1.50913e-06
      2.30000   2.42250e-06
      2.40000   3.79724e-06
      2.50000   5.79322e-06
      2.60000   8.82425e-06
      2.70000   1.31288e-05
      2.80000   1.91562e-05
      2.90000   2.76574e-05
      3.00000   3.93002e-05
      3.10000   5.51168e-05
      3.20000   7.64387e-05
      3.30000   0.000104907
      3.40000   0.000142443
      3.50000   0.000191492
      3.60000   0.000256171
      3.70000   0.000338977
      3.80000   0.000446556
      3.90000   0.000584841
      4.00000   0.000760963
      4.10000   0.000985243
      4.20000    0.00127083
      4.30000    0.00163405
      4.40000    0.00209479
      4.50000    0.00267719
      4.60000    0.00340896
      4.70000    0.00433896
      4.80000    0.00551483
      4.90000    0.00691732
      5.00000    0.00890040
      5.10000     0.0112876
      5.20000     0.0143497
      5.30000     0.0180834
      5.40000     0.0227396
      5.50000     0.0286327
      5.60000     0.0349342
      5.70000     0.0448853
      5.80000     0.0519738
      5.90000     0.0783527
      6.00000      0.103948
      6.10000      0.131050
      6.20000      0.158701
      6.30000      0.184148
      6.40000      0.204862
      6.50000      0.218729
      6.60000      0.222857
      6.70000      0.226001
      6.80000      0.222534
      6.90000      0.286903
      7.00000      0.306420
      7.10000      0.318081
      7.20000      0.325518
      7.30000      0.329905
      7.40000      0.331270
      7.50000      0.330635
      7.60000      0.328164
      7.70000      0.323112
      7.80000      0.315038
      7.90000      0.307301
      8.00000      0.433472
      8.10000      0.462817
      8.20000      0.458358
      8.30000      0.451696
      8.40000      0.443046
      8.50000      0.433536
      8.60000      0.423136
      8.70000      0.412171
      8.80000      0.400609
      8.90000      0.388669
      9.00000      0.376401
      9.10000      0.363877
      9.20000      0.351188
      9.30000      0.338401
      9.40000      0.325552
      9.50000      0.312689
      9.60000      0.299896
      9.70000      0.287177
      9.80000      0.274590
      9.90000      0.262204
      10.0000      0.250048
      10.1000      0.238116
      10.2000      0.226430
      10.3000      0.215031
      10.4000      0.203937
      10.5000      0.193138
      10.6000      0.182648
      10.7000      0.172479
      10.8000      0.162657
      10.9000      0.153209
      11.0000      0.144106
      11.1000      0.135355
      11.2000      0.126958
      11.3000      0.118915
      11.4000      0.111223
      11.5000      0.103877
      11.6000     0.0968767
      11.7000     0.0902304
      11.8000     0.0839166
      11.9000     0.0779138
      12.0000     0.0721457
      12.1000     0.0669274
      12.2000     0.0631338
      12.3000     0.0588700
      12.4000     0.0544169
      12.5000     0.0501992
      12.6000     0.0462324
      12.7000     0.0425154
      12.8000     0.0390397
      12.9000     0.0357946
      13.0000     0.0327714
      13.1000     0.0299602
      13.2000     0.0273544
      13.3000     0.0249559
      13.4000     0.0227460
      13.5000     0.0207047
      13.6000     0.0188338
      13.7000     0.0171091
      13.8000     0.0155208
      13.9000     0.0140606
      14.0000     0.0127194
      14.1000     0.0114873
      14.2000     0.0103557
      14.3000    0.00931887
      14.4000    0.00837128
      14.5000    0.00751167
      14.6000    0.00673637
      14.7000    0.00603059
      14.8000    0.00538896
      14.9000    0.00480643
      15.0000    0.00427838
      15.1000    0.00380057
      15.2000    0.00337768
      15.3000    0.00299734
      15.4000    0.00265420
      15.5000    0.00234508
      15.6000    0.00206717
      15.7000    0.00182128
      15.8000    0.00160475
      15.9000    0.00141046
      16.0000    0.00123643
      16.1000    0.00108087
      16.2000   0.000946226
      16.3000   0.000827272
      16.4000   0.000721042
      16.5000   0.000626397
      16.6000   0.000544119
      16.7000   0.000472971
      16.8000   0.000409617
      16.9000   0.000353378
      17.0000   0.000304995
      17.1000   0.000263622
      17.2000   0.000227057
      17.3000   0.000194863
      17.4000   0.000167884
      17.5000   0.000144329
      17.6000   0.000123595
      17.7000   0.000105956
      17.8000   9.16478e-05
      17.9000   7.89303e-05
      18.0000   6.76241e-05
      18.1000   5.83058e-05
      18.2000   4.99578e-05
      18.3000   4.24432e-05
      18.4000   3.60391e-05
      18.5000   3.04734e-05
      18.6000   2.55018e-05
      18.7000   2.13094e-05
      18.8000   1.77988e-05
      18.9000   1.47215e-05
      19.0000   1.22287e-05
      19.1000   1.01525e-05
      19.2000   8.33573e-06
      19.3000   6.89535e-06
      19.4000   5.69597e-06
      19.5000   4.65871e-06
      19.6000   3.88329e-06
      19.7000   3.21008e-06
      19.8000   2.62751e-06
      19.9000   2.18435e-06
      20.0000   1.78981e-06
      20.1000   1.46616e-06
      20.2000   1.20746e-06
      20.3000   9.78812e-07
      20.4000   8.03989e-07
      20.5000   6.54554e-07
      20.6000   5.27749e-07
      20.7000   4.32282e-07
      20.8000   3.47116e-07
      20.9000   2.81726e-07
      21.0000   2.27270e-07
      21.1000   1.81030e-07
      21.2000   1.46973e-07
      21.3000   1.16451e-07
      21.4000   9.37945e-08
      21.5000   7.46292e-08
      21.6000   5.89995e-08
      21.7000   4.71987e-08
      21.8000   3.66797e-08
      21.9000   2.94205e-08
      22.0000   2.28939e-08
      22.1000   1.80623e-08
      22.2000   1.41071e-08
      22.3000   1.09137e-08
      22.4000   8.44639e-09
      22.5000   6.21629e-09
      22.6000   4.47693e-09
      22.7000   3.02800e-09
      22.8000   2.90777e-09
      22.9000   2.88712e-09
      23.0000   2.93511e-09
      23.1000   2.73680e-09
      23.2000   2.30700e-09
      23.3000   1.88468e-09
      23.4000   1.46653e-09
      23.5000   1.16573e-09
      23.6000   8.94178e-10
      23.7000   7.11832e-10
      23.8000   5.39386e-10
      23.9000   4.29223e-10
      24.0000   3.24758e-10
      24.1000   2.56312e-10
      24.2000   1.93504e-10
      24.3000   1.51620e-10
      24.4000   1.14251e-10
      24.5000   8.89135e-11
      24.6000   6.68263e-11
      24.7000   5.17033e-11
      24.8000   3.87419e-11
      24.9000   2.98237e-11
      25.0000   2.22579e-11
      25.1000   1.70666e-11
      25.2000   1.26737e-11
      25.3000   9.68915e-12
      25.4000   7.15019e-12
      25.5000   5.45731e-12
      25.6000   3.99716e-12
      25.7000   3.04948e-12
      25.8000   2.21357e-12
      25.9000   1.69011e-12
      26.0000   1.21396e-12
      26.1000   9.28726e-13
      26.2000   6.58977e-13
      26.3000   5.05768e-13
      26.4000   3.53978e-13
      26.5000   2.72849e-13
      26.6000   1.92092e-13
      26.7000   1.45725e-13
      26.8000   1.03598e-13
      26.9000   7.70111e-14
      27.0000   5.53518e-14
      27.1000   4.02253e-14
      27.2000   2.92563e-14
      27.3000   2.07711e-14
      27.4000   1.53697e-14
      27.5000   1.06831e-14
      27.6000   7.98977e-15
      27.7000   5.38606e-15
      27.8000   4.08174e-15
      27.9000   2.78327e-15
      28.0000   2.05386e-15
      28.1000   1.43738e-15
      28.2000   1.01799e-15
      28.3000   7.30252e-16
      28.4000   4.96586e-16
      28.5000   3.64610e-16
      28.6000   2.38225e-16
      28.7000   1.78774e-16
      28.8000   1.19594e-16
      28.9000   8.60212e-17
      29.0000   5.98209e-17
      29.1000   4.05777e-17
      29.2000   2.91920e-17
      29.3000   1.87526e-17
      29.4000   1.38986e-17
      29.5000   9.06712e-18
      29.6000   6.45658e-18
      29.7000   4.43686e-18
      29.8000   2.92670e-18
      29.9000   2.09887e-18
      30.0000   1.29429e-18
      30.1000   9.61813e-19
      30.2000   6.30883e-19
      30.3000   4.30962e-19
      30.4000   3.06117e-19
      30.5000   1.96769e-19
      30.6000   1.43364e-19
      30.7000   9.02087e-20
      30.8000   6.24855e-20
      30.9000   4.24586e-20
      31.0000   2.63777e-20
      31.1000   1.90924e-20
      31.2000   1.18412e-20
      31.3000   8.33523e-21
      31.4000   5.63950e-21
      31.5000   3.50081e-21
      31.6000   2.52023e-21
      31.7000   1.54429e-21
      31.8000   1.07033e-21
      31.9000   7.23605e-22
      32.0000   4.36410e-22
      32.1000   3.18259e-22
      32.2000   2.00663e-22
      32.3000   1.35638e-22
      32.4000   9.38761e-23
      32.5000   5.52698e-23
      32.6000   4.07631e-23
      32.7000   2.63244e-23
      32.8000   1.67202e-23
      32.9000   1.18117e-23
      33.0000   6.92643e-24
      33.1000   4.90882e-24
      33.2000   3.28593e-24
      33.3000   1.92457e-24
      33.4000   1.39733e-24
      33.5000   8.72516e-25
      33.6000   5.51292e-25
      33.7000   3.84797e-25
      33.8000   2.19052e-25
      33.9000   1.53645e-25
      34.0000   1.02303e-25
      34.1000   5.71604e-26
      34.2000   4.16461e-26
      34.3000   2.61966e-26
      34.4000   1.55215e-26
      34.5000   1.09697e-26
      34.6000   6.43734e-27
      34.7000   4.10921e-27
      34.8000   2.80731e-27
      34.9000   1.51087e-27
      35.0000   1.05991e-27
      35.1000   6.97697e-28
      35.2000   3.65197e-28
      35.3000   2.66686e-28
      35.4000   1.68588e-28
      35.5000   9.14475e-29
      35.6000   6.54906e-29
      35.7000   3.96424e-29
      35.8000   2.23567e-29
      35.9000   1.57060e-29
      36.0000   9.08320e-30
      36.1000   5.33647e-30
      36.2000   3.68093e-30
      36.3000   2.03232e-30
      36.4000   1.24418e-30
      36.5000   8.43926e-31
      36.6000   4.45381e-31
      36.7000   2.83387e-31
      36.8000   1.89461e-31
      36.9000   9.59372e-32
      37.0000   6.30617e-32
      37.1000   4.16805e-32
      37.2000   2.03893e-32
      37.3000   1.37075e-32
      37.4000   8.98974e-33
      37.5000   4.29222e-33
      37.6000   2.91016e-33
      37.7000   1.90188e-33
      37.8000   8.97928e-34
      37.9000   6.03359e-34
      38.0000   3.94663e-34
      38.1000   1.86853e-34
      38.2000   1.22047e-34
      38.3000   8.02471e-35
      38.4000   3.86247e-35
      38.5000   2.40521e-35
      38.6000   1.59638e-35
      38.7000   7.90991e-36
      38.8000   4.61532e-36
      38.9000   3.10351e-36
      39.0000   1.59808e-36
      39.1000   8.61575e-37
      39.2000   5.88644e-37
      39.3000   3.16862e-37
      39.4000   1.56045e-37
      39.5000   1.08217e-37
      39.6000   6.05938e-38
      39.7000   2.66027e-38
      39.8000   1.88139e-38
      39.9000   1.10579e-38
      40.0000   4.37438e-39
      40.1000   3.15790e-39
      40.2000   1.94655e-39
      40.3000   7.40442e-40
      40.4000   5.11900e-40
      40.5000   3.29969e-40
      40.6000   1.48798e-40
      40.7000   7.99343e-41
      40.8000   5.36908e-41
      40.9000   2.75565e-41
      41.0000   1.19937e-41
      41.1000   8.36435e-42
      41.2000   4.74760e-42
      41.3000   1.72780e-42
      41.4000   1.24295e-42
      41.5000   7.66510e-43
      41.6000   2.90069e-43
      41.7000   1.75162e-43
      41.8000   1.14906e-43
      41.9000   5.46506e-44
      42.0000   2.52234e-44
      42.1000   1.96182e-44
      42.2000   9.80909e-45
      42.3000   2.80260e-45
      42.4000   2.80260e-45
      42.5000   2.80260e-45
      42.6000  -2.80260e-45
      42.7000       0.00000
      42.8000       0.00000
      42.9000       0.00000
      43.0000       0.00000
      43.1000       0.00000
      43.2000       0.00000
      43.3000       0.00000
      43.4000       0.00000
      43.5000       0.00000
      43.6000       0.00000
      43.7000       0.00000
      43.8000       0.00000
      43.9000       0.00000
      44.0000       0.00000
      44.1000       0.00000
      44.2000       0.00000
      44.3000       0.00000
      44.4000       0.00000
      44.5000       0.00000
      44.6000       0.00000
      44.7000       0.00000
      44.8000       0.00000
      44.9000       0.00000
      45.0000       0.00000
      45.1000       0.00000
      45.2000       0.00000
      45.3000       0.00000
      45.4000       0.00000
      45.5000       0.00000
      45.6000       0.00000
      45.7000       0.00000
      45.8000       0.00000
      45.9000       0.00000
      46.0000       0.00000
      46.1000       0.00000
      46.2000       0.00000
      46.3000       0.00000
      46.4000       0.00000
      46.5000       0.00000
      46.6000       0.00000
      46.7000       0.00000
      46.8000       0.00000
      46.9000       0.00000
      47.0000       0.00000
      47.1000       0.00000
      47.2000       0.00000
      47.3000       0.00000
      47.4000       0.00000
      47.5000       0.00000
      47.6000       0.00000
      47.7000       0.00000
      47.8000       0.00000
      47.9000       0.00000
      48.0000       0.00000
      48.1000       0.00000
      48.2000       0.00000
      48.3000       0.00000
      48.4000       0.00000
      48.5000       0.00000
      48.6000       0.00000
      48.7000       0.00000
      48.8000       0.00000
      48.9000       0.00000
      49.0000       0.00000
      49.1000       0.00000
      49.2000       0.00000
      49.3000       0.00000
      49.4000       0.00000
      49.5000       0.00000
      49.6000       0.00000
      49.7000       0.00000
      49.8000       0.00000
      49.9000       0.00000
      50.0000       0.00000
      50.1000       0.00000
      50.2000       0.00000
      50.3000       0.00000
      50.4000       0.00000
      50.5000       0.00000
      50.6000       0.00000
      50.7000       0.00000
      50.8000       0.00000
      50.9000       0.00000
      51.0000       0.00000
      51.1000       0.00000
      51.2000       0.00000
      51.3000       0.00000
      51.4000       0.00000
      51.5000       0.00000
      51.6000       0.00000
      51.7000       0.00000
      51.8000       0.00000
      51.9000       0.00000
      52.0000       0.00000
      52.1000       0.00000
      52.2000       0.00000
      52.3000       0.00000
      52.4000       0.00000
      52.5000       0.00000
      52.6000       0.00000
      52.7000       0.00000
      52.8000       0.00000
      52.9000       0.00000
      53.0000       0.00000
      53.1000       0.00000
      53.2000       0.00000
      53.3000       0.00000
      53.4000       0.00000
      53.5000       0.00000
      53.6000       0.00000
      53.7000       0.00000
      53.8000       0.00000
      53.9000       0.00000
      54.0000       0.00000
      54.1000       0.00000
      54.2000       0.00000
      54.3000       0.00000
      54.4000       0.00000
      54.5000       0.00000
      54.6000       0.00000
      54.7000       0.00000
      54.8000       0.00000
      54.9000       0.00000
      55.0000       0.00000
      55.1000       0.00000
      55.2000       0.00000
      55.3000       0.00000
      55.4000       0.00000
      55.5000       0.00000
      55.6000       0.00000
      55.7000       0.00000
      55.8000       0.00000
      55.9000       0.00000
      56.0000       0.00000
      56.1000       0.00000
      56.2000       0.00000
      56.3000       0.00000
      56.4000       0.00000
      56.5000       0.00000
      56.6000       0.00000
      56.7000       0.00000
      56.8000       0.00000
      56.9000       0.00000
      57.0000       0.00000
      57.1000       0.00000
      57.2000       0.00000
      57.3000       0.00000
      57.4000       0.00000
      57.5000       0.00000
      57.6000       0.00000
      57.7000       0.00000
      57.8000       0.00000
      57.9000       0.00000
      58.0000       0.00000
      58.1000       0.00000
      58.2000       0.00000
      58.3000       0.00000
      58.4000       0.00000
      58.5000       0.00000
      58.6000       0.00000
      58.7000       0.00000
      58.8000       0.00000
      58.9000       0.00000
      59.0000       0.00000
      59.1000       0.00000
      59.2000       0.00000
      59.3000       0.00000
      59.4000       0.00000
      59.5000       0.00000
      59.6000       0.00000
      59.7000       0.00000
      59.8000       0.00000
      59.9000       0.00000
      60.0000       0.00000
      60.1000       0.00000
      60.2000       0.00000
      60.3000       0.00000
      60.4000       0.00000
      60.5000       0.00000
      60.6000       0.00000
      60.7000       0.00000
      60.8000       0.00000
      60.9000       0.00000
      61.0000       0.00000
      61.1000       0.00000
      61.2000       0.00000
      61.3000       0.00000
      61.4000       0.00000
      61.5000       0.00000
      61.6000       0.00000
      61.7000       0.00000
      61.8000       0.00000
      61.9000       0.00000
      62.0000       0.00000
      62.1000       0.00000
      62.2000       0.00000
      62.3000       0.00000
      62.4000       0.00000
      62.5000       0.00000
      62.6000       0.00000
      62.7000       0.00000
      62.8000       0.00000
      62.9000       0.00000
      63.0000       0.00000
      63.1000       0.00000
      63.2000       0.00000
      63.3000       0.00000
      63.4000       0.00000
      63.5000       0.00000
      63.6000       0.00000
      63.7000       0.00000
      63.8000       0.00000
      63.9000       0.00000
      64.0000       0.00000
      64.1000       0.00000
      64.2000       0.00000
      64.3000       0.00000
      64.4000       0.00000
      64.5000       0.00000
      64.6000       0.00000
      64.7000       0.00000
      64.8000       0.00000
      64.9000       0.00000
      65.0000       0.00000
      65.1000       0.00000
      65.2000       0.00000
      65.3000       0.00000
      65.4000       0.00000
      65.5000       0.00000
      65.6000       0.00000
      65.7000       0.00000
      65.8000       0.00000
      65.9000       0.00000
      66.0000       0.00000
      66.1000       0.00000
      66.2000       0.00000
      66.3000       0.00000
      66.4000       0.00000
      66.5000       0.00000
      66.6000       0.00000
      66.7000       0.00000
      66.8000       0.00000
      66.9000       0.00000
      67.0000       0.00000
      67.1000       0.00000
      67.2000       0.00000
      67.3000       0.00000
      67.4000       0.00000
      67.5000       0.00000
      67.6000       0.00000
      67.7000       0.00000
      67.8000       0.00000
      67.9000       0.00000
      68.0000       0.00000
      68.1000       0.00000
      68.2000       0.00000
      68.3000       0.00000
      68.4000       0.00000
      68.5000       0.00000
      68.6000       0.00000
      68.7000       0.00000
      68.8000       0.00000
      68.9000       0.00000
      69.0000       0.00000
      69.1000       0.00000
      69.2000       0.00000
      69.3000       0.00000
      69.4000       0.00000
      69.5000       0.00000
      69.6000       0.00000
      69.7000       0.00000
      69.8000       0.00000
      69.9000       0.00000
      70.0000       0.00000
      70.1000       0.00000
      70.2000       0.00000
      70.3000       0.00000
      70.4000       0.00000
      70.5000       0.00000
      70.6000       0.00000
      70.7000       0.00000
      70.8000       0.00000
      70.9000       0.00000
      71.0000       0.00000
      71.1000       0.00000
      71.2000       0.00000
      71.3000       0.00000
      71.4000       0.00000
      71.5000       0.00000
      71.6000       0.00000
      71.7000       0.00000
      71.8000       0.00000
      71.9000       0.00000
      72.0000       0.00000
