Filter Be-med
observation_date 22-Sept-2013 22:40:45
wavelength effective area 
      1.00000   2.78115e-10
      1.10000   7.93777e-10
      1.20000   2.06299e-09
      1.30000   4.93139e-09
      1.40000   1.11852e-08
      1.50000   2.38508e-08
      1.60000   4.82561e-08
      1.70000   9.36204e-08
      1.80000   1.74162e-07
      1.90000   3.12745e-07
      2.00000   5.43159e-07
      2.10000   9.16388e-07
      2.20000   1.50911e-06
      2.30000   2.42246e-06
      2.40000   3.79717e-06
      2.50000   5.79309e-06
      2.60000   8.82402e-06
      2.70000   1.31285e-05
      2.80000   1.91556e-05
      2.90000   2.76564e-05
      3.00000   3.92987e-05
      3.10000   5.51143e-05
      3.20000   7.64350e-05
      3.30000   0.000104901
      3.40000   0.000142434
      3.50000   0.000191479
      3.60000   0.000256153
      3.70000   0.000338952
      3.80000   0.000446519
      3.90000   0.000584790
      4.00000   0.000760891
      4.10000   0.000985142
      4.20000    0.00127069
      4.30000    0.00163386
      4.40000    0.00209452
      4.50000    0.00267683
      4.60000    0.00340847
      4.70000    0.00433830
      4.80000    0.00551393
      4.90000    0.00691612
      5.00000    0.00889877
      5.10000     0.0112854
      5.20000     0.0143468
      5.30000     0.0180795
      5.40000     0.0227343
      5.50000     0.0286258
      5.60000     0.0349253
      5.70000     0.0448732
      5.80000     0.0519591
      5.90000     0.0783294
      6.00000      0.103915
      6.10000      0.131007
      6.20000      0.158647
      6.30000      0.184082
      6.40000      0.204785
      6.50000      0.218643
      6.60000      0.222765
      6.70000      0.225904
      6.80000      0.222435
      6.90000      0.286769
      7.00000      0.306271
      7.10000      0.317919
      7.20000      0.325346
      7.30000      0.329723
      7.40000      0.331081
      7.50000      0.330439
      7.60000      0.327961
      7.70000      0.322905
      7.80000      0.314828
      7.90000      0.307090
      8.00000      0.433162
      8.10000      0.462475
      8.20000      0.458006
      8.30000      0.451338
      8.40000      0.442682
      8.50000      0.433168
      8.60000      0.422765
      8.70000      0.411798
      8.80000      0.400234
      8.90000      0.388294
      9.00000      0.376026
      9.10000      0.363503
      9.20000      0.350816
      9.30000      0.338031
      9.40000      0.325185
      9.50000      0.312326
      9.60000      0.299537
      9.70000      0.286823
      9.80000      0.274242
      9.90000      0.261862
      10.0000      0.249713
      10.1000      0.237788
      10.2000      0.226110
      10.3000      0.214718
      10.4000      0.203632
      10.5000      0.192842
      10.6000      0.182361
      10.7000      0.172200
      10.8000      0.162387
      10.9000      0.152949
      11.0000      0.143854
      11.1000      0.135113
      11.2000      0.126725
      11.3000      0.118692
      11.4000      0.111008
      11.5000      0.103672
      11.6000     0.0966808
      11.7000     0.0900434
      11.8000     0.0837386
      11.9000     0.0777446
      12.0000     0.0719855
      12.1000     0.0667753
      12.2000     0.0629871
      12.3000     0.0587301
      12.4000     0.0542848
      12.5000     0.0500746
      12.6000     0.0461151
      12.7000     0.0424052
      12.8000     0.0389363
      12.9000     0.0356977
      13.0000     0.0326808
      13.1000     0.0298757
      13.2000     0.0272756
      13.3000     0.0248825
      13.4000     0.0226777
      13.5000     0.0206414
      13.6000     0.0187750
      13.7000     0.0170546
      13.8000     0.0154705
      13.9000     0.0140141
      14.0000     0.0126765
      14.1000     0.0114478
      14.2000     0.0103194
      14.3000    0.00928563
      14.4000    0.00834086
      14.5000    0.00748387
      14.6000    0.00671097
      14.7000    0.00600743
      14.8000    0.00536789
      14.9000    0.00478729
      15.0000    0.00426103
      15.1000    0.00378488
      15.2000    0.00336348
      15.3000    0.00298452
      15.4000    0.00264264
      15.5000    0.00233469
      15.6000    0.00205786
      15.7000    0.00181293
      15.8000    0.00159726
      15.9000    0.00140377
      16.0000    0.00123046
      16.1000    0.00107557
      16.2000   0.000941508
      16.3000   0.000823080
      16.4000   0.000717328
      16.5000   0.000623118
      16.6000   0.000541224
      16.7000   0.000470415
      16.8000   0.000407368
      16.9000   0.000351407
      17.0000   0.000303267
      17.1000   0.000262105
      17.2000   0.000225730
      17.3000   0.000193707
      17.4000   0.000166873
      17.5000   0.000143447
      17.6000   0.000122828
      17.7000   0.000105290
      17.8000   9.10638e-05
      17.9000   7.84207e-05
      18.0000   6.71818e-05
      18.1000   5.79194e-05
      18.2000   4.96224e-05
      18.3000   4.21544e-05
      18.4000   3.57905e-05
      18.5000   3.02604e-05
      18.6000   2.53211e-05
      18.7000   2.11563e-05
      18.8000   1.76692e-05
      18.9000   1.46129e-05
      19.0000   1.21372e-05
      19.1000   1.00755e-05
      19.2000   8.27171e-06
      19.3000   6.84169e-06
      19.4000   5.65105e-06
      19.5000   4.62150e-06
      19.6000   3.85187e-06
      19.7000   3.18378e-06
      19.8000   2.60571e-06
      19.9000   2.16599e-06
      20.0000   1.77459e-06
      20.1000   1.45353e-06
      20.2000   1.19693e-06
      20.3000   9.70172e-07
      20.4000   7.96805e-07
      20.5000   6.48634e-07
      20.6000   5.22918e-07
      20.7000   4.28277e-07
      20.8000   3.43862e-07
      20.9000   2.79053e-07
      21.0000   2.25088e-07
      21.1000   1.79272e-07
      21.2000   1.45529e-07
      21.3000   1.15293e-07
      21.4000   9.28508e-08
      21.5000   7.38697e-08
      21.6000   5.83921e-08
      21.7000   4.67071e-08
      21.8000   3.62933e-08
      21.9000   2.91070e-08
      22.0000   2.26471e-08
      22.1000   1.78654e-08
      22.2000   1.39516e-08
      22.3000   1.07920e-08
      22.4000   8.35118e-09
      22.5000   6.14543e-09
      22.6000   4.42533e-09
      22.7000   2.99419e-09
      22.8000   2.87974e-09
      22.9000   2.86223e-09
      23.0000   2.90982e-09
      23.1000   2.71308e-09
      23.2000   2.28663e-09
      23.3000   1.86786e-09
      23.4000   1.45329e-09
      23.5000   1.15509e-09
      23.6000   8.85933e-10
      23.7000   7.05198e-10
      23.8000   5.34305e-10
      23.9000   4.25137e-10
      24.0000   3.21634e-10
      24.1000   2.53821e-10
      24.2000   1.91603e-10
      24.3000   1.50115e-10
      24.4000   1.13106e-10
      24.5000   8.80126e-11
      24.6000   6.61423e-11
      24.7000   5.11687e-11
      24.8000   3.83372e-11
      24.9000   2.95090e-11
      25.0000   2.20207e-11
      25.1000   1.68828e-11
      25.2000   1.25359e-11
      25.3000   9.58273e-12
      25.4000   7.07086e-12
      25.5000   5.39616e-12
      25.6000   3.95194e-12
      25.7000   3.01464e-12
      25.8000   2.18804e-12
      25.9000   1.67043e-12
      26.0000   1.19969e-12
      26.1000   9.17704e-13
      26.2000   6.51083e-13
      26.3000   4.99653e-13
      26.4000   3.49657e-13
      26.5000   2.69488e-13
      26.6000   1.89703e-13
      26.7000   1.43896e-13
      26.8000   1.02286e-13
      26.9000   7.60266e-14
      27.0000   5.46377e-14
      27.1000   3.97017e-14
      27.2000   2.88720e-14
      27.3000   2.04957e-14
      27.4000   1.51642e-14
      27.5000   1.05389e-14
      27.6000   7.88095e-15
      27.7000   5.31205e-15
      27.8000   4.02515e-15
      27.9000   2.74435e-15
      28.0000   2.02488e-15
      28.1000   1.41692e-15
      28.2000   1.00337e-15
      28.3000   7.19675e-16
      28.4000   4.89330e-16
      28.5000   3.59236e-16
      28.6000   2.34684e-16
      28.7000   1.76093e-16
      28.8000   1.17786e-16
      28.9000   8.47092e-17
      29.0000   5.89007e-17
      29.1000   3.99482e-17
      29.2000   2.87353e-17
      29.3000   1.84567e-17
      29.4000   1.36775e-17
      29.5000   8.92165e-18
      29.6000   6.35213e-18
      29.7000   4.36448e-18
      29.8000   2.87856e-18
      29.9000   2.06406e-18
      30.0000   1.27265e-18
      30.1000   9.45598e-19
      30.2000   6.20161e-19
      30.3000   4.23578e-19
      30.4000   3.00829e-19
      30.5000   1.93342e-19
      30.6000   1.40848e-19
      30.7000   8.86124e-20
      30.8000   6.13709e-20
      30.9000   4.16952e-20
      31.0000   2.58996e-20
      31.1000   1.87436e-20
      31.2000   1.16231e-20
      31.3000   8.18054e-21
      31.4000   5.53403e-21
      31.5000   3.43482e-21
      31.6000   2.47236e-21
      31.7000   1.51472e-21
      31.8000   1.04968e-21
      31.9000   7.09535e-22
      32.0000   4.27858e-22
      32.1000   3.11975e-22
      32.2000   1.96671e-22
      32.3000   1.32918e-22
      32.4000   9.19797e-23
      32.5000   5.41449e-23
      32.6000   3.99274e-23
      32.7000   2.57809e-23
      32.8000   1.63725e-23
      32.9000   1.15643e-23
      33.0000   6.78030e-24
      33.1000   4.80454e-24
      33.2000   3.21567e-24
      33.3000   1.88315e-24
      33.4000   1.36705e-24
      33.5000   8.53486e-25
      33.6000   5.39190e-25
      33.7000   3.76294e-25
      33.8000   2.14180e-25
      33.9000   1.50205e-25
      34.0000   9.99982e-26
      34.1000   5.58641e-26
      34.2000   4.06955e-26
      34.3000   2.55948e-26
      34.4000   1.51627e-26
      34.5000   1.07145e-26
      34.6000   6.28660e-27
      34.7000   4.01237e-27
      34.8000   2.74074e-27
      34.9000   1.47481e-27
      35.0000   1.03445e-27
      35.1000   6.80835e-28
      35.2000   3.56315e-28
      35.3000   2.60159e-28
      35.4000   1.64436e-28
      35.5000   8.91816e-29
      35.6000   6.38577e-29
      35.7000   3.86479e-29
      35.8000   2.17925e-29
      35.9000   1.53072e-29
      36.0000   8.85113e-30
      36.1000   5.19930e-30
      36.2000   3.58573e-30
      36.3000   1.97944e-30
      36.4000   1.21161e-30
      36.5000   8.21698e-31
      36.6000   4.33579e-31
      36.7000   2.75832e-31
      36.8000   1.84380e-31
      36.9000   9.33489e-32
      37.0000   6.13502e-32
      37.1000   4.05427e-32
      37.2000   1.98294e-32
      37.3000   1.33288e-32
      37.4000   8.73997e-33
      37.5000   4.17226e-33
      37.6000   2.82835e-33
      37.7000   1.84811e-33
      37.8000   8.72391e-34
      37.9000   5.86099e-34
      38.0000   3.83307e-34
      38.1000   1.81445e-34
      38.2000   1.18494e-34
      38.3000   7.78977e-35
      38.4000   3.74874e-35
      38.5000   2.33398e-35
      38.6000   1.54884e-35
      38.7000   7.67300e-36
      38.8000   4.47630e-36
      38.9000   3.00951e-36
      39.0000   1.54940e-36
      39.1000   8.35184e-37
      39.2000   5.70512e-37
      39.3000   3.07047e-37
      39.4000   1.51185e-37
      39.5000   1.04827e-37
      39.6000   5.86853e-38
      39.7000   2.57602e-38
      39.8000   1.82147e-38
      39.9000   1.07037e-38
      40.0000   4.23353e-39
      40.1000   3.05566e-39
      40.2000   1.88318e-39
      40.3000   7.16208e-40
      40.4000   4.95052e-40
      40.5000   3.19049e-40
      40.6000   1.43850e-40
      40.7000   7.72606e-41
      40.8000   5.18859e-41
      40.9000   2.66233e-41
      41.0000   1.15887e-41
      41.1000   8.07708e-42
      41.2000   4.58505e-42
      41.3000   1.66755e-42
      41.4000   1.20091e-42
      41.5000   7.38484e-43
      41.6000   2.81661e-43
      41.7000   1.69557e-43
      41.8000   1.12104e-43
      41.9000   5.04467e-44
      42.0000   2.52234e-44
      42.1000   1.96182e-44
      42.2000   9.80909e-45
      42.3000   2.80260e-45
      42.4000   2.80260e-45
      42.5000   2.80260e-45
      42.6000  -2.80260e-45
      42.7000       0.00000
      42.8000       0.00000
      42.9000       0.00000
      43.0000       0.00000
      43.1000       0.00000
      43.2000       0.00000
      43.3000       0.00000
      43.4000       0.00000
      43.5000       0.00000
      43.6000       0.00000
      43.7000       0.00000
      43.8000       0.00000
      43.9000       0.00000
      44.0000       0.00000
      44.1000       0.00000
      44.2000       0.00000
      44.3000       0.00000
      44.4000       0.00000
      44.5000       0.00000
      44.6000       0.00000
      44.7000       0.00000
      44.8000       0.00000
      44.9000       0.00000
      45.0000       0.00000
      45.1000       0.00000
      45.2000       0.00000
      45.3000       0.00000
      45.4000       0.00000
      45.5000       0.00000
      45.6000       0.00000
      45.7000       0.00000
      45.8000       0.00000
      45.9000       0.00000
      46.0000       0.00000
      46.1000       0.00000
      46.2000       0.00000
      46.3000       0.00000
      46.4000       0.00000
      46.5000       0.00000
      46.6000       0.00000
      46.7000       0.00000
      46.8000       0.00000
      46.9000       0.00000
      47.0000       0.00000
      47.1000       0.00000
      47.2000       0.00000
      47.3000       0.00000
      47.4000       0.00000
      47.5000       0.00000
      47.6000       0.00000
      47.7000       0.00000
      47.8000       0.00000
      47.9000       0.00000
      48.0000       0.00000
      48.1000       0.00000
      48.2000       0.00000
      48.3000       0.00000
      48.4000       0.00000
      48.5000       0.00000
      48.6000       0.00000
      48.7000       0.00000
      48.8000       0.00000
      48.9000       0.00000
      49.0000       0.00000
      49.1000       0.00000
      49.2000       0.00000
      49.3000       0.00000
      49.4000       0.00000
      49.5000       0.00000
      49.6000       0.00000
      49.7000       0.00000
      49.8000       0.00000
      49.9000       0.00000
      50.0000       0.00000
      50.1000       0.00000
      50.2000       0.00000
      50.3000       0.00000
      50.4000       0.00000
      50.5000       0.00000
      50.6000       0.00000
      50.7000       0.00000
      50.8000       0.00000
      50.9000       0.00000
      51.0000       0.00000
      51.1000       0.00000
      51.2000       0.00000
      51.3000       0.00000
      51.4000       0.00000
      51.5000       0.00000
      51.6000       0.00000
      51.7000       0.00000
      51.8000       0.00000
      51.9000       0.00000
      52.0000       0.00000
      52.1000       0.00000
      52.2000       0.00000
      52.3000       0.00000
      52.4000       0.00000
      52.5000       0.00000
      52.6000       0.00000
      52.7000       0.00000
      52.8000       0.00000
      52.9000       0.00000
      53.0000       0.00000
      53.1000       0.00000
      53.2000       0.00000
      53.3000       0.00000
      53.4000       0.00000
      53.5000       0.00000
      53.6000       0.00000
      53.7000       0.00000
      53.8000       0.00000
      53.9000       0.00000
      54.0000       0.00000
      54.1000       0.00000
      54.2000       0.00000
      54.3000       0.00000
      54.4000       0.00000
      54.5000       0.00000
      54.6000       0.00000
      54.7000       0.00000
      54.8000       0.00000
      54.9000       0.00000
      55.0000       0.00000
      55.1000       0.00000
      55.2000       0.00000
      55.3000       0.00000
      55.4000       0.00000
      55.5000       0.00000
      55.6000       0.00000
      55.7000       0.00000
      55.8000       0.00000
      55.9000       0.00000
      56.0000       0.00000
      56.1000       0.00000
      56.2000       0.00000
      56.3000       0.00000
      56.4000       0.00000
      56.5000       0.00000
      56.6000       0.00000
      56.7000       0.00000
      56.8000       0.00000
      56.9000       0.00000
      57.0000       0.00000
      57.1000       0.00000
      57.2000       0.00000
      57.3000       0.00000
      57.4000       0.00000
      57.5000       0.00000
      57.6000       0.00000
      57.7000       0.00000
      57.8000       0.00000
      57.9000       0.00000
      58.0000       0.00000
      58.1000       0.00000
      58.2000       0.00000
      58.3000       0.00000
      58.4000       0.00000
      58.5000       0.00000
      58.6000       0.00000
      58.7000       0.00000
      58.8000       0.00000
      58.9000       0.00000
      59.0000       0.00000
      59.1000       0.00000
      59.2000       0.00000
      59.3000       0.00000
      59.4000       0.00000
      59.5000       0.00000
      59.6000       0.00000
      59.7000       0.00000
      59.8000       0.00000
      59.9000       0.00000
      60.0000       0.00000
      60.1000       0.00000
      60.2000       0.00000
      60.3000       0.00000
      60.4000       0.00000
      60.5000       0.00000
      60.6000       0.00000
      60.7000       0.00000
      60.8000       0.00000
      60.9000       0.00000
      61.0000       0.00000
      61.1000       0.00000
      61.2000       0.00000
      61.3000       0.00000
      61.4000       0.00000
      61.5000       0.00000
      61.6000       0.00000
      61.7000       0.00000
      61.8000       0.00000
      61.9000       0.00000
      62.0000       0.00000
      62.1000       0.00000
      62.2000       0.00000
      62.3000       0.00000
      62.4000       0.00000
      62.5000       0.00000
      62.6000       0.00000
      62.7000       0.00000
      62.8000       0.00000
      62.9000       0.00000
      63.0000       0.00000
      63.1000       0.00000
      63.2000       0.00000
      63.3000       0.00000
      63.4000       0.00000
      63.5000       0.00000
      63.6000       0.00000
      63.7000       0.00000
      63.8000       0.00000
      63.9000       0.00000
      64.0000       0.00000
      64.1000       0.00000
      64.2000       0.00000
      64.3000       0.00000
      64.4000       0.00000
      64.5000       0.00000
      64.6000       0.00000
      64.7000       0.00000
      64.8000       0.00000
      64.9000       0.00000
      65.0000       0.00000
      65.1000       0.00000
      65.2000       0.00000
      65.3000       0.00000
      65.4000       0.00000
      65.5000       0.00000
      65.6000       0.00000
      65.7000       0.00000
      65.8000       0.00000
      65.9000       0.00000
      66.0000       0.00000
      66.1000       0.00000
      66.2000       0.00000
      66.3000       0.00000
      66.4000       0.00000
      66.5000       0.00000
      66.6000       0.00000
      66.7000       0.00000
      66.8000       0.00000
      66.9000       0.00000
      67.0000       0.00000
      67.1000       0.00000
      67.2000       0.00000
      67.3000       0.00000
      67.4000       0.00000
      67.5000       0.00000
      67.6000       0.00000
      67.7000       0.00000
      67.8000       0.00000
      67.9000       0.00000
      68.0000       0.00000
      68.1000       0.00000
      68.2000       0.00000
      68.3000       0.00000
      68.4000       0.00000
      68.5000       0.00000
      68.6000       0.00000
      68.7000       0.00000
      68.8000       0.00000
      68.9000       0.00000
      69.0000       0.00000
      69.1000       0.00000
      69.2000       0.00000
      69.3000       0.00000
      69.4000       0.00000
      69.5000       0.00000
      69.6000       0.00000
      69.7000       0.00000
      69.8000       0.00000
      69.9000       0.00000
      70.0000       0.00000
      70.1000       0.00000
      70.2000       0.00000
      70.3000       0.00000
      70.4000       0.00000
      70.5000       0.00000
      70.6000       0.00000
      70.7000       0.00000
      70.8000       0.00000
      70.9000       0.00000
      71.0000       0.00000
      71.1000       0.00000
      71.2000       0.00000
      71.3000       0.00000
      71.4000       0.00000
      71.5000       0.00000
      71.6000       0.00000
      71.7000       0.00000
      71.8000       0.00000
      71.9000       0.00000
      72.0000       0.00000
