Filter Be-med
observation_date 22-Sept-2006 22:40:45
wavelength effective area 
      1.00000   2.78117e-10
      1.10000   7.93785e-10
      1.20000   2.06301e-09
      1.30000   4.93148e-09
      1.40000   1.11854e-08
      1.50000   2.38515e-08
      1.60000   4.82577e-08
      1.70000   9.36240e-08
      1.80000   1.74170e-07
      1.90000   3.12762e-07
      2.00000   5.43194e-07
      2.10000   9.16457e-07
      2.20000   1.50924e-06
      2.30000   2.42270e-06
      2.40000   3.79760e-06
      2.50000   5.79384e-06
      2.60000   8.82531e-06
      2.70000   1.31306e-05
      2.80000   1.91591e-05
      2.90000   2.76620e-05
      3.00000   3.93075e-05
      3.10000   5.51280e-05
      3.20000   7.64559e-05
      3.30000   0.000104932
      3.40000   0.000142481
      3.50000   0.000191548
      3.60000   0.000256253
      3.70000   0.000339095
      3.80000   0.000446725
      3.90000   0.000585080
      4.00000   0.000761298
      4.10000   0.000985710
      4.20000    0.00127148
      4.30000    0.00163494
      4.40000    0.00209601
      4.50000    0.00267886
      4.60000    0.00341123
      4.70000    0.00434204
      4.80000    0.00551899
      4.90000    0.00692287
      5.00000    0.00890798
      5.10000     0.0112978
      5.20000     0.0143634
      5.30000     0.0181017
      5.40000     0.0227638
      5.50000     0.0286650
      5.60000     0.0349757
      5.70000     0.0449414
      5.80000     0.0520421
      5.90000     0.0784610
      6.00000      0.104098
      6.10000      0.131249
      6.20000      0.158955
      6.30000      0.184456
      6.40000      0.205220
      6.50000      0.219129
      6.60000      0.223282
      6.70000      0.226452
      6.80000      0.222998
      6.90000      0.287526
      7.00000      0.307114
      7.10000      0.318831
      7.20000      0.326317
      7.30000      0.330748
      7.40000      0.332150
      7.50000      0.331548
      7.60000      0.329104
      7.70000      0.324073
      7.80000      0.316011
      7.90000      0.308286
      8.00000      0.434911
      8.10000      0.464409
      8.20000      0.459991
      8.30000      0.453362
      8.40000      0.444736
      8.50000      0.435247
      8.60000      0.424862
      8.70000      0.413908
      8.80000      0.402352
      8.90000      0.390416
      9.00000      0.378147
      9.10000      0.365618
      9.20000      0.352922
      9.30000      0.340124
      9.40000      0.327260
      9.50000      0.314380
      9.60000      0.301566
      9.70000      0.288824
      9.80000      0.276211
      9.90000      0.263796
      10.0000      0.251610
      10.1000      0.239645
      10.2000      0.227925
      10.3000      0.216489
      10.4000      0.205358
      10.5000      0.194520
      10.6000      0.183990
      10.7000      0.173780
      10.8000      0.163916
      10.9000      0.154426
      11.0000      0.145280
      11.1000      0.136486
      11.2000      0.128045
      11.3000      0.119959
      11.4000      0.112223
      11.5000      0.104834
      11.6000     0.0977914
      11.7000     0.0911029
      11.8000     0.0847475
      11.9000     0.0787035
      12.0000     0.0728940
      12.1000     0.0676375
      12.2000     0.0638189
      12.3000     0.0595233
      12.4000     0.0550344
      12.5000     0.0507816
      12.6000     0.0467806
      12.7000     0.0430306
      12.8000     0.0395231
      12.9000     0.0362474
      13.0000     0.0331949
      13.1000     0.0303556
      13.2000     0.0277230
      13.3000     0.0252992
      13.4000     0.0230653
      13.5000     0.0210013
      13.6000     0.0191090
      13.7000     0.0173640
      13.8000     0.0157567
      13.9000     0.0142784
      14.0000     0.0129203
      14.1000     0.0116722
      14.2000     0.0105256
      14.3000    0.00947470
      14.4000    0.00851393
      14.5000    0.00764209
      14.6000    0.00685552
      14.7000    0.00613925
      14.8000    0.00548786
      14.9000    0.00489627
      15.0000    0.00435982
      15.1000    0.00387424
      15.2000    0.00344433
      15.3000    0.00305756
      15.4000    0.00270847
      15.5000    0.00239389
      15.6000    0.00211096
      15.7000    0.00186054
      15.8000    0.00163994
      15.9000    0.00144192
      16.0000    0.00126448
      16.1000    0.00110581
      16.2000   0.000968428
      16.3000   0.000847009
      16.4000   0.000738530
      16.5000   0.000641840
      16.6000   0.000557753
      16.7000   0.000485016
      16.8000   0.000420218
      16.9000   0.000362671
      17.0000   0.000313144
      17.1000   0.000270778
      17.2000   0.000233318
      17.3000   0.000200321
      17.4000   0.000172659
      17.5000   0.000148495
      17.6000   0.000127215
      17.7000   0.000109103
      17.8000   9.44073e-05
      17.9000   8.13388e-05
      18.0000   6.97155e-05
      18.1000   6.01333e-05
      18.2000   5.15447e-05
      18.3000   4.38098e-05
      18.4000   3.72153e-05
      18.5000   3.14816e-05
      18.6000   2.63573e-05
      18.7000   2.20343e-05
      18.8000   1.84128e-05
      18.9000   1.52364e-05
      19.0000   1.26623e-05
      19.1000   1.05174e-05
      19.2000   8.63942e-06
      19.3000   7.14996e-06
      19.4000   5.90912e-06
      19.5000   4.83536e-06
      19.6000   4.03248e-06
      19.7000   3.33502e-06
      19.8000   2.73111e-06
      19.9000   2.27158e-06
      20.0000   1.86221e-06
      20.1000   1.52622e-06
      20.2000   1.25755e-06
      20.3000   1.01993e-06
      20.4000   8.38186e-07
      20.5000   6.82743e-07
      20.6000   5.50760e-07
      20.7000   4.51365e-07
      20.8000   3.62628e-07
      20.9000   2.94470e-07
      21.0000   2.37677e-07
      21.1000   1.89421e-07
      21.2000   1.53868e-07
      21.3000   1.21979e-07
      21.4000   9.83009e-08
      21.5000   7.82578e-08
      21.6000   6.19023e-08
      21.7000   4.95485e-08
      21.8000   3.85274e-08
      21.9000   3.09201e-08
      22.0000   2.40745e-08
      22.1000   1.90047e-08
      22.2000   1.48517e-08
      22.3000   1.14965e-08
      22.4000   8.90267e-09
      22.5000   6.55597e-09
      22.6000   4.72438e-09
      22.7000   3.18998e-09
      22.8000   3.04154e-09
      22.9000   3.00547e-09
      23.0000   3.05539e-09
      23.1000   2.84963e-09
      23.2000   2.40398e-09
      23.3000   1.96479e-09
      23.4000   1.52955e-09
      23.5000   1.21638e-09
      23.6000   9.33459e-10
      23.7000   7.43446e-10
      23.8000   5.63603e-10
      23.9000   4.48705e-10
      24.0000   3.39658e-10
      24.1000   2.68199e-10
      24.2000   2.02575e-10
      24.3000   1.58804e-10
      24.4000   1.19722e-10
      24.5000   9.32164e-11
      24.6000   7.00946e-11
      24.7000   5.42587e-11
      24.8000   4.06769e-11
      24.9000   3.13289e-11
      25.0000   2.33930e-11
      25.1000   1.79459e-11
      25.2000   1.33335e-11
      25.3000   1.01988e-11
      25.4000   7.53014e-12
      25.5000   5.75027e-12
      25.6000   4.21390e-12
      25.7000   3.21648e-12
      25.8000   2.33600e-12
      25.9000   1.78452e-12
      26.0000   1.28244e-12
      26.1000   9.81631e-13
      26.2000   6.96884e-13
      26.3000   5.35146e-13
      26.4000   3.74739e-13
      26.5000   2.89007e-13
      26.6000   2.03577e-13
      26.7000   1.54522e-13
      26.8000   1.09912e-13
      26.9000   8.17494e-14
      27.0000   5.87899e-14
      27.1000   4.27476e-14
      27.2000   3.11081e-14
      27.3000   2.20982e-14
      27.4000   1.63610e-14
      27.5000   1.13785e-14
      27.6000   8.51473e-15
      27.7000   5.74324e-15
      27.8000   4.35493e-15
      27.9000   2.97128e-15
      28.0000   2.19387e-15
      28.1000   1.53627e-15
      28.2000   1.08866e-15
      28.3000   7.81413e-16
      28.4000   5.31693e-16
      28.5000   3.90620e-16
      28.6000   2.55373e-16
      28.7000   1.91758e-16
      28.8000   1.28358e-16
      28.9000   9.23811e-17
      29.0000   6.42832e-17
      29.1000   4.36315e-17
      29.2000   3.14084e-17
      29.3000   2.01890e-17
      29.4000   1.49725e-17
      29.5000   9.77388e-18
      29.6000   6.96426e-18
      29.7000   4.78876e-18
      29.8000   3.16085e-18
      29.9000   2.26825e-18
      30.0000   1.39964e-18
      30.1000   1.04078e-18
      30.2000   6.83123e-19
      30.3000   4.66953e-19
      30.4000   3.31900e-19
      30.5000   2.13483e-19
      30.6000   1.55646e-19
      30.7000   9.80019e-20
      30.8000   6.79292e-20
      30.9000   4.61887e-20
      31.0000   2.87145e-20
      31.1000   2.07980e-20
      31.2000   1.29078e-20
      31.3000   9.09229e-21
      31.4000   6.15597e-21
      31.5000   3.82406e-21
      31.6000   2.75487e-21
      31.7000   1.68924e-21
      31.8000   1.17162e-21
      31.9000   7.92643e-22
      32.0000   4.78386e-22
      32.1000   3.49120e-22
      32.2000   2.20279e-22
      32.3000   1.49004e-22
      32.4000   1.03201e-22
      32.5000   6.08041e-23
      32.6000   4.48766e-23
      32.7000   2.90012e-23
      32.8000   1.84333e-23
      32.9000   1.30311e-23
      33.0000   7.64695e-24
      33.1000   5.42317e-24
      33.2000   3.63266e-24
      33.3000   2.12906e-24
      33.4000   1.54684e-24
      33.5000   9.66530e-25
      33.6000   6.11111e-25
      33.7000   4.26842e-25
      33.8000   2.43153e-25
      33.9000   1.70667e-25
      34.0000   1.13716e-25
      34.1000   6.35814e-26
      34.2000   4.63566e-26
      34.3000   2.91800e-26
      34.4000   1.73013e-26
      34.5000   1.22362e-26
      34.6000   7.18562e-27
      34.7000   4.59011e-27
      34.8000   3.13809e-27
      34.9000   1.69009e-27
      35.0000   1.18649e-27
      35.1000   7.81582e-28
      35.2000   4.09400e-28
      35.3000   2.99182e-28
      35.4000   1.89268e-28
      35.5000   1.02740e-28
      35.6000   7.36317e-29
      35.7000   4.46031e-29
      35.8000   2.51729e-29
      35.9000   1.76975e-29
      36.0000   1.02425e-29
      36.1000   6.02208e-30
      36.2000   4.15694e-30
      36.3000   2.29686e-30
      36.4000   1.40719e-30
      36.5000   9.55212e-31
      36.6000   5.04494e-31
      36.7000   3.21243e-31
      36.8000   2.14934e-31
      36.9000   1.08919e-31
      37.0000   7.16500e-32
      37.1000   4.73935e-32
      37.2000   2.32019e-32
      37.3000   1.56104e-32
      37.4000   1.02457e-32
      37.5000   4.89572e-33
      37.6000   3.32194e-33
      37.7000   2.17270e-33
      37.8000   1.02660e-33
      37.9000   6.90361e-34
      38.0000   4.51930e-34
      38.1000   2.14136e-34
      38.2000   1.39979e-34
      38.3000   9.21113e-35
      38.4000   4.43708e-35
      38.5000   2.76525e-35
      38.6000   1.83683e-35
      38.7000   9.10871e-36
      38.8000   5.31913e-36
      38.9000   3.57970e-36
      39.0000   1.84479e-36
      39.1000   9.95404e-37
      39.2000   6.80638e-37
      39.3000   3.66685e-37
      39.4000   1.80732e-37
      39.5000   1.25441e-37
      39.6000   7.02966e-38
      39.7000   3.08884e-38
      39.8000   2.18631e-38
      39.9000   1.28609e-38
      40.0000   5.09193e-39
      40.1000   3.67902e-39
      40.2000   2.26969e-39
      40.3000   8.64097e-40
      40.4000   5.97899e-40
      40.5000   3.85734e-40
      40.6000   1.74096e-40
      40.7000   9.36053e-41
      40.8000   6.29281e-41
      40.9000   3.23238e-41
      41.0000   1.40830e-41
      41.1000   9.82731e-42
      41.2000   5.58417e-42
      41.3000   2.03469e-42
      41.4000   1.46716e-42
      41.5000   9.03838e-43
      41.6000   3.41917e-43
      41.7000   2.07392e-43
      41.8000   1.34525e-43
      41.9000   6.44597e-44
      42.0000   2.94273e-44
      42.1000   2.24208e-44
      42.2000   9.80909e-45
      42.3000   2.80260e-45
      42.4000   2.80260e-45
      42.5000   2.80260e-45
      42.6000  -2.80260e-45
      42.7000       0.00000
      42.8000       0.00000
      42.9000       0.00000
      43.0000       0.00000
      43.1000       0.00000
      43.2000       0.00000
      43.3000       0.00000
      43.4000       0.00000
      43.5000       0.00000
      43.6000       0.00000
      43.7000       0.00000
      43.8000       0.00000
      43.9000       0.00000
      44.0000       0.00000
      44.1000       0.00000
      44.2000       0.00000
      44.3000       0.00000
      44.4000       0.00000
      44.5000       0.00000
      44.6000       0.00000
      44.7000       0.00000
      44.8000       0.00000
      44.9000       0.00000
      45.0000       0.00000
      45.1000       0.00000
      45.2000       0.00000
      45.3000       0.00000
      45.4000       0.00000
      45.5000       0.00000
      45.6000       0.00000
      45.7000       0.00000
      45.8000       0.00000
      45.9000       0.00000
      46.0000       0.00000
      46.1000       0.00000
      46.2000       0.00000
      46.3000       0.00000
      46.4000       0.00000
      46.5000       0.00000
      46.6000       0.00000
      46.7000       0.00000
      46.8000       0.00000
      46.9000       0.00000
      47.0000       0.00000
      47.1000       0.00000
      47.2000       0.00000
      47.3000       0.00000
      47.4000       0.00000
      47.5000       0.00000
      47.6000       0.00000
      47.7000       0.00000
      47.8000       0.00000
      47.9000       0.00000
      48.0000       0.00000
      48.1000       0.00000
      48.2000       0.00000
      48.3000       0.00000
      48.4000       0.00000
      48.5000       0.00000
      48.6000       0.00000
      48.7000       0.00000
      48.8000       0.00000
      48.9000       0.00000
      49.0000       0.00000
      49.1000       0.00000
      49.2000       0.00000
      49.3000       0.00000
      49.4000       0.00000
      49.5000       0.00000
      49.6000       0.00000
      49.7000       0.00000
      49.8000       0.00000
      49.9000       0.00000
      50.0000       0.00000
      50.1000       0.00000
      50.2000       0.00000
      50.3000       0.00000
      50.4000       0.00000
      50.5000       0.00000
      50.6000       0.00000
      50.7000       0.00000
      50.8000       0.00000
      50.9000       0.00000
      51.0000       0.00000
      51.1000       0.00000
      51.2000       0.00000
      51.3000       0.00000
      51.4000       0.00000
      51.5000       0.00000
      51.6000       0.00000
      51.7000       0.00000
      51.8000       0.00000
      51.9000       0.00000
      52.0000       0.00000
      52.1000       0.00000
      52.2000       0.00000
      52.3000       0.00000
      52.4000       0.00000
      52.5000       0.00000
      52.6000       0.00000
      52.7000       0.00000
      52.8000       0.00000
      52.9000       0.00000
      53.0000       0.00000
      53.1000       0.00000
      53.2000       0.00000
      53.3000       0.00000
      53.4000       0.00000
      53.5000       0.00000
      53.6000       0.00000
      53.7000       0.00000
      53.8000       0.00000
      53.9000       0.00000
      54.0000       0.00000
      54.1000       0.00000
      54.2000       0.00000
      54.3000       0.00000
      54.4000       0.00000
      54.5000       0.00000
      54.6000       0.00000
      54.7000       0.00000
      54.8000       0.00000
      54.9000       0.00000
      55.0000       0.00000
      55.1000       0.00000
      55.2000       0.00000
      55.3000       0.00000
      55.4000       0.00000
      55.5000       0.00000
      55.6000       0.00000
      55.7000       0.00000
      55.8000       0.00000
      55.9000       0.00000
      56.0000       0.00000
      56.1000       0.00000
      56.2000       0.00000
      56.3000       0.00000
      56.4000       0.00000
      56.5000       0.00000
      56.6000       0.00000
      56.7000       0.00000
      56.8000       0.00000
      56.9000       0.00000
      57.0000       0.00000
      57.1000       0.00000
      57.2000       0.00000
      57.3000       0.00000
      57.4000       0.00000
      57.5000       0.00000
      57.6000       0.00000
      57.7000       0.00000
      57.8000       0.00000
      57.9000       0.00000
      58.0000       0.00000
      58.1000       0.00000
      58.2000       0.00000
      58.3000       0.00000
      58.4000       0.00000
      58.5000       0.00000
      58.6000       0.00000
      58.7000       0.00000
      58.8000       0.00000
      58.9000       0.00000
      59.0000       0.00000
      59.1000       0.00000
      59.2000       0.00000
      59.3000       0.00000
      59.4000       0.00000
      59.5000       0.00000
      59.6000       0.00000
      59.7000       0.00000
      59.8000       0.00000
      59.9000       0.00000
      60.0000       0.00000
      60.1000       0.00000
      60.2000       0.00000
      60.3000       0.00000
      60.4000       0.00000
      60.5000       0.00000
      60.6000       0.00000
      60.7000       0.00000
      60.8000       0.00000
      60.9000       0.00000
      61.0000       0.00000
      61.1000       0.00000
      61.2000       0.00000
      61.3000       0.00000
      61.4000       0.00000
      61.5000       0.00000
      61.6000       0.00000
      61.7000       0.00000
      61.8000       0.00000
      61.9000       0.00000
      62.0000       0.00000
      62.1000       0.00000
      62.2000       0.00000
      62.3000       0.00000
      62.4000       0.00000
      62.5000       0.00000
      62.6000       0.00000
      62.7000       0.00000
      62.8000       0.00000
      62.9000       0.00000
      63.0000       0.00000
      63.1000       0.00000
      63.2000       0.00000
      63.3000       0.00000
      63.4000       0.00000
      63.5000       0.00000
      63.6000       0.00000
      63.7000       0.00000
      63.8000       0.00000
      63.9000       0.00000
      64.0000       0.00000
      64.1000       0.00000
      64.2000       0.00000
      64.3000       0.00000
      64.4000       0.00000
      64.5000       0.00000
      64.6000       0.00000
      64.7000       0.00000
      64.8000       0.00000
      64.9000       0.00000
      65.0000       0.00000
      65.1000       0.00000
      65.2000       0.00000
      65.3000       0.00000
      65.4000       0.00000
      65.5000       0.00000
      65.6000       0.00000
      65.7000       0.00000
      65.8000       0.00000
      65.9000       0.00000
      66.0000       0.00000
      66.1000       0.00000
      66.2000       0.00000
      66.3000       0.00000
      66.4000       0.00000
      66.5000       0.00000
      66.6000       0.00000
      66.7000       0.00000
      66.8000       0.00000
      66.9000       0.00000
      67.0000       0.00000
      67.1000       0.00000
      67.2000       0.00000
      67.3000       0.00000
      67.4000       0.00000
      67.5000       0.00000
      67.6000       0.00000
      67.7000       0.00000
      67.8000       0.00000
      67.9000       0.00000
      68.0000       0.00000
      68.1000       0.00000
      68.2000       0.00000
      68.3000       0.00000
      68.4000       0.00000
      68.5000       0.00000
      68.6000       0.00000
      68.7000       0.00000
      68.8000       0.00000
      68.9000       0.00000
      69.0000       0.00000
      69.1000       0.00000
      69.2000       0.00000
      69.3000       0.00000
      69.4000       0.00000
      69.5000       0.00000
      69.6000       0.00000
      69.7000       0.00000
      69.8000       0.00000
      69.9000       0.00000
      70.0000       0.00000
      70.1000       0.00000
      70.2000       0.00000
      70.3000       0.00000
      70.4000       0.00000
      70.5000       0.00000
      70.6000       0.00000
      70.7000       0.00000
      70.8000       0.00000
      70.9000       0.00000
      71.0000       0.00000
      71.1000       0.00000
      71.2000       0.00000
      71.3000       0.00000
      71.4000       0.00000
      71.5000       0.00000
      71.6000       0.00000
      71.7000       0.00000
      71.8000       0.00000
      71.9000       0.00000
      72.0000       0.00000
