Filter Be-med
observation_date 22-Sept-2019 22:40:45
wavelength effective area 
      1.00000   2.78114e-10
      1.10000   7.93776e-10
      1.20000   2.06298e-09
      1.30000   4.93138e-09
      1.40000   1.11851e-08
      1.50000   2.38507e-08
      1.60000   4.82558e-08
      1.70000   9.36196e-08
      1.80000   1.74160e-07
      1.90000   3.12741e-07
      2.00000   5.43152e-07
      2.10000   9.16374e-07
      2.20000   1.50908e-06
      2.30000   2.42241e-06
      2.40000   3.79708e-06
      2.50000   5.79294e-06
      2.60000   8.82377e-06
      2.70000   1.31280e-05
      2.80000   1.91549e-05
      2.90000   2.76553e-05
      3.00000   3.92969e-05
      3.10000   5.51116e-05
      3.20000   7.64308e-05
      3.30000   0.000104895
      3.40000   0.000142425
      3.50000   0.000191466
      3.60000   0.000256133
      3.70000   0.000338923
      3.80000   0.000446478
      3.90000   0.000584732
      4.00000   0.000760810
      4.10000   0.000985029
      4.20000    0.00127054
      4.30000    0.00163364
      4.40000    0.00209423
      4.50000    0.00267642
      4.60000    0.00340792
      4.70000    0.00433755
      4.80000    0.00551292
      4.90000    0.00691477
      5.00000    0.00889693
      5.10000     0.0112829
      5.20000     0.0143435
      5.30000     0.0180750
      5.40000     0.0227285
      5.50000     0.0286180
      5.60000     0.0349152
      5.70000     0.0448596
      5.80000     0.0519425
      5.90000     0.0783032
      6.00000      0.103879
      6.10000      0.130958
      6.20000      0.158586
      6.30000      0.184007
      6.40000      0.204698
      6.50000      0.218546
      6.60000      0.222662
      6.70000      0.225794
      6.80000      0.222322
      6.90000      0.286617
      7.00000      0.306103
      7.10000      0.317738
      7.20000      0.325152
      7.30000      0.329519
      7.40000      0.330868
      7.50000      0.330218
      7.60000      0.327733
      7.70000      0.322672
      7.80000      0.314593
      7.90000      0.306851
      8.00000      0.432814
      8.10000      0.462089
      8.20000      0.457611
      8.30000      0.450935
      8.40000      0.442273
      8.50000      0.432754
      8.60000      0.422348
      8.70000      0.411378
      8.80000      0.399812
      8.90000      0.387872
      9.00000      0.375604
      9.10000      0.363082
      9.20000      0.350397
      9.30000      0.337615
      9.40000      0.324772
      9.50000      0.311918
      9.60000      0.299134
      9.70000      0.286426
      9.80000      0.273850
      9.90000      0.261477
      10.0000      0.249336
      10.1000      0.237419
      10.2000      0.225749
      10.3000      0.214366
      10.4000      0.203290
      10.5000      0.192508
      10.6000      0.182037
      10.7000      0.171887
      10.8000      0.162083
      10.9000      0.152655
      11.0000      0.143572
      11.1000      0.134841
      11.2000      0.126463
      11.3000      0.118440
      11.4000      0.110767
      11.5000      0.103441
      11.6000     0.0964606
      11.7000     0.0898334
      11.8000     0.0835386
      11.9000     0.0775546
      12.0000     0.0718054
      12.1000     0.0666045
      12.2000     0.0628223
      12.3000     0.0585731
      12.4000     0.0541363
      12.5000     0.0499347
      12.6000     0.0459833
      12.7000     0.0422814
      12.8000     0.0388202
      12.9000     0.0355890
      13.0000     0.0325792
      13.1000     0.0297808
      13.2000     0.0271872
      13.3000     0.0248001
      13.4000     0.0226011
      13.5000     0.0205703
      13.6000     0.0187090
      13.7000     0.0169935
      13.8000     0.0154140
      13.9000     0.0139619
      14.0000     0.0126284
      14.1000     0.0114035
      14.2000     0.0102788
      14.3000    0.00924833
      14.4000    0.00830673
      14.5000    0.00745267
      14.6000    0.00668248
      14.7000    0.00598146
      14.8000    0.00534425
      14.9000    0.00476583
      15.0000    0.00424158
      15.1000    0.00376729
      15.2000    0.00334757
      15.3000    0.00297015
      15.4000    0.00262969
      15.5000    0.00232305
      15.6000    0.00204742
      15.7000    0.00180357
      15.8000    0.00158888
      15.9000    0.00139627
      16.0000    0.00122378
      16.1000    0.00106963
      16.2000   0.000936224
      16.3000   0.000818384
      16.4000   0.000713169
      16.5000   0.000619446
      16.6000   0.000537984
      16.7000   0.000467553
      16.8000   0.000404850
      16.9000   0.000349200
      17.0000   0.000301332
      17.1000   0.000260407
      17.2000   0.000224245
      17.3000   0.000192412
      17.4000   0.000165741
      17.5000   0.000142460
      17.6000   0.000121971
      17.7000   0.000104544
      17.8000   9.04106e-05
      17.9000   7.78508e-05
      18.0000   6.66870e-05
      18.1000   5.74872e-05
      18.2000   4.92472e-05
      18.3000   4.18314e-05
      18.4000   3.55127e-05
      18.5000   3.00223e-05
      18.6000   2.51192e-05
      18.7000   2.09853e-05
      18.8000   1.75244e-05
      18.9000   1.44915e-05
      19.0000   1.20351e-05
      19.1000   9.98957e-06
      19.2000   8.20019e-06
      19.3000   6.78175e-06
      19.4000   5.60090e-06
      19.5000   4.57995e-06
      19.6000   3.81679e-06
      19.7000   3.15441e-06
      19.8000   2.58137e-06
      19.9000   2.14551e-06
      20.0000   1.75759e-06
      20.1000   1.43944e-06
      20.2000   1.18519e-06
      20.3000   9.60532e-07
      20.4000   7.88791e-07
      20.5000   6.42030e-07
      20.6000   5.17530e-07
      20.7000   4.23811e-07
      20.8000   3.40233e-07
      20.9000   2.76073e-07
      21.0000   2.22656e-07
      21.1000   1.77311e-07
      21.2000   1.43919e-07
      21.3000   1.14002e-07
      21.4000   9.17994e-08
      21.5000   7.30235e-08
      21.6000   5.77154e-08
      21.7000   4.61597e-08
      21.8000   3.58630e-08
      21.9000   2.87579e-08
      22.0000   2.23724e-08
      22.1000   1.76462e-08
      22.2000   1.37785e-08
      22.3000   1.06566e-08
      22.4000   8.24523e-09
      22.5000   6.06660e-09
      22.6000   4.36793e-09
      22.7000   2.95657e-09
      22.8000   2.84849e-09
      22.9000   2.83445e-09
      23.0000   2.88159e-09
      23.1000   2.68661e-09
      23.2000   2.26389e-09
      23.3000   1.84908e-09
      23.4000   1.43853e-09
      23.5000   1.14323e-09
      23.6000   8.76738e-10
      23.7000   6.97800e-10
      23.8000   5.28641e-10
      23.9000   4.20582e-10
      24.0000   3.18152e-10
      24.1000   2.51044e-10
      24.2000   1.89485e-10
      24.3000   1.48438e-10
      24.4000   1.11829e-10
      24.5000   8.70090e-11
      24.6000   6.53802e-11
      24.7000   5.05731e-11
      24.8000   3.78865e-11
      24.9000   2.91585e-11
      25.0000   2.17565e-11
      25.1000   1.66782e-11
      25.2000   1.23824e-11
      25.3000   9.46426e-12
      25.4000   6.98258e-12
      25.5000   5.32812e-12
      25.6000   3.90162e-12
      25.7000   2.97588e-12
      25.8000   2.15964e-12
      25.9000   1.64854e-12
      26.0000   1.18381e-12
      26.1000   9.05449e-13
      26.2000   6.42306e-13
      26.3000   4.92854e-13
      26.4000   3.44855e-13
      26.5000   2.65751e-13
      26.6000   1.87048e-13
      26.7000   1.41864e-13
      26.8000   1.00828e-13
      26.9000   7.49330e-14
      27.0000   5.38446e-14
      27.1000   3.91200e-14
      27.2000   2.84451e-14
      27.3000   2.01900e-14
      27.4000   1.49359e-14
      27.5000   1.03788e-14
      27.6000   7.76019e-15
      27.7000   5.22992e-15
      27.8000   3.96236e-15
      27.9000   2.70116e-15
      28.0000   1.99273e-15
      28.1000   1.39423e-15
      28.2000   9.87160e-16
      28.3000   7.07946e-16
      28.4000   4.81286e-16
      28.5000   3.53279e-16
      28.6000   2.30758e-16
      28.7000   1.73123e-16
      28.8000   1.15782e-16
      28.9000   8.32555e-17
      29.0000   5.78813e-17
      29.1000   3.92509e-17
      29.2000   2.82295e-17
      29.3000   1.81291e-17
      29.4000   1.34326e-17
      29.5000   8.76062e-18
      29.6000   6.23652e-18
      29.7000   4.28438e-18
      29.8000   2.82529e-18
      29.9000   2.02555e-18
      30.0000   1.24871e-18
      30.1000   9.27665e-19
      30.2000   6.08304e-19
      30.3000   4.15413e-19
      30.4000   2.94983e-19
      30.5000   1.89554e-19
      30.6000   1.38066e-19
      30.7000   8.68483e-20
      30.8000   6.01393e-20
      30.9000   4.08518e-20
      31.0000   2.53716e-20
      31.1000   1.83585e-20
      31.2000   1.13824e-20
      31.3000   8.00977e-21
      31.4000   5.41759e-21
      31.5000   3.36198e-21
      31.6000   2.41952e-21
      31.7000   1.48210e-21
      31.8000   1.02690e-21
      31.9000   6.94017e-22
      32.0000   4.18429e-22
      32.1000   3.05046e-22
      32.2000   1.92269e-22
      32.3000   1.29921e-22
      32.4000   8.98898e-23
      32.5000   5.29054e-23
      32.6000   3.90067e-23
      32.7000   2.51821e-23
      32.8000   1.59895e-23
      32.9000   1.12918e-23
      33.0000   6.61941e-24
      33.1000   4.68976e-24
      33.2000   3.13833e-24
      33.3000   1.83756e-24
      33.4000   1.33374e-24
      33.5000   8.32552e-25
      33.6000   5.25878e-25
      33.7000   3.66943e-25
      33.8000   2.08822e-25
      33.9000   1.46424e-25
      34.0000   9.74642e-26
      34.1000   5.44393e-26
      34.2000   3.96509e-26
      34.3000   2.49336e-26
      34.4000   1.47684e-26
      34.5000   1.04341e-26
      34.6000   6.12106e-27
      34.7000   3.90604e-27
      34.8000   2.66764e-27
      34.9000   1.43523e-27
      35.0000   1.00651e-27
      35.1000   6.62331e-28
      35.2000   3.46571e-28
      35.3000   2.53000e-28
      35.4000   1.59883e-28
      35.5000   8.66970e-29
      35.6000   6.20677e-29
      35.7000   3.75578e-29
      35.8000   2.11740e-29
      35.9000   1.48701e-29
      36.0000   8.59682e-30
      36.1000   5.04900e-30
      36.2000   3.48144e-30
      36.3000   1.92152e-30
      36.4000   1.17594e-30
      36.5000   7.97366e-31
      36.6000   4.20663e-31
      36.7000   2.67566e-31
      36.8000   1.78822e-31
      36.9000   9.05178e-32
      37.0000   5.94785e-32
      37.1000   3.92984e-32
      37.2000   1.92172e-32
      37.3000   1.29149e-32
      37.4000   8.46695e-33
      37.5000   4.04116e-33
      37.6000   2.73896e-33
      37.7000   1.78936e-33
      37.8000   8.44497e-34
      37.9000   5.67250e-34
      38.0000   3.70909e-34
      38.1000   1.75543e-34
      38.2000   1.14617e-34
      38.3000   7.53343e-35
      38.4000   3.62467e-35
      38.5000   2.25629e-35
      38.6000   1.49699e-35
      38.7000   7.41469e-36
      38.8000   4.32475e-36
      38.9000   2.90704e-36
      39.0000   1.49635e-36
      39.1000   8.06427e-37
      39.2000   5.50758e-37
      39.3000   2.96356e-37
      39.4000   1.45891e-37
      39.5000   1.01137e-37
      39.6000   5.66076e-38
      39.7000   2.48431e-38
      39.8000   1.75627e-38
      39.9000   1.03185e-38
      40.0000   4.08033e-39
      40.1000   2.94448e-39
      40.2000   1.81428e-39
      40.3000   6.89862e-40
      40.4000   4.76743e-40
      40.5000   3.07186e-40
      40.6000   1.38472e-40
      40.7000   7.43557e-41
      40.8000   4.99241e-41
      40.9000   2.56143e-41
      41.0000   1.11445e-41
      41.1000   7.76740e-42
      41.2000   4.40848e-42
      41.3000   1.60449e-42
      41.4000   1.15327e-42
      41.5000   7.09057e-43
      41.6000   2.69049e-43
      41.7000   1.62551e-43
      41.8000   1.05097e-43
      41.9000   4.76441e-44
      42.0000   2.24208e-44
      42.1000   1.96182e-44
      42.2000   7.00649e-45
      42.3000   2.80260e-45
      42.4000   2.80260e-45
      42.5000   2.80260e-45
      42.6000  -2.80260e-45
      42.7000       0.00000
      42.8000       0.00000
      42.9000       0.00000
      43.0000       0.00000
      43.1000       0.00000
      43.2000       0.00000
      43.3000       0.00000
      43.4000       0.00000
      43.5000       0.00000
      43.6000       0.00000
      43.7000       0.00000
      43.8000       0.00000
      43.9000       0.00000
      44.0000       0.00000
      44.1000       0.00000
      44.2000       0.00000
      44.3000       0.00000
      44.4000       0.00000
      44.5000       0.00000
      44.6000       0.00000
      44.7000       0.00000
      44.8000       0.00000
      44.9000       0.00000
      45.0000       0.00000
      45.1000       0.00000
      45.2000       0.00000
      45.3000       0.00000
      45.4000       0.00000
      45.5000       0.00000
      45.6000       0.00000
      45.7000       0.00000
      45.8000       0.00000
      45.9000       0.00000
      46.0000       0.00000
      46.1000       0.00000
      46.2000       0.00000
      46.3000       0.00000
      46.4000       0.00000
      46.5000       0.00000
      46.6000       0.00000
      46.7000       0.00000
      46.8000       0.00000
      46.9000       0.00000
      47.0000       0.00000
      47.1000       0.00000
      47.2000       0.00000
      47.3000       0.00000
      47.4000       0.00000
      47.5000       0.00000
      47.6000       0.00000
      47.7000       0.00000
      47.8000       0.00000
      47.9000       0.00000
      48.0000       0.00000
      48.1000       0.00000
      48.2000       0.00000
      48.3000       0.00000
      48.4000       0.00000
      48.5000       0.00000
      48.6000       0.00000
      48.7000       0.00000
      48.8000       0.00000
      48.9000       0.00000
      49.0000       0.00000
      49.1000       0.00000
      49.2000       0.00000
      49.3000       0.00000
      49.4000       0.00000
      49.5000       0.00000
      49.6000       0.00000
      49.7000       0.00000
      49.8000       0.00000
      49.9000       0.00000
      50.0000       0.00000
      50.1000       0.00000
      50.2000       0.00000
      50.3000       0.00000
      50.4000       0.00000
      50.5000       0.00000
      50.6000       0.00000
      50.7000       0.00000
      50.8000       0.00000
      50.9000       0.00000
      51.0000       0.00000
      51.1000       0.00000
      51.2000       0.00000
      51.3000       0.00000
      51.4000       0.00000
      51.5000       0.00000
      51.6000       0.00000
      51.7000       0.00000
      51.8000       0.00000
      51.9000       0.00000
      52.0000       0.00000
      52.1000       0.00000
      52.2000       0.00000
      52.3000       0.00000
      52.4000       0.00000
      52.5000       0.00000
      52.6000       0.00000
      52.7000       0.00000
      52.8000       0.00000
      52.9000       0.00000
      53.0000       0.00000
      53.1000       0.00000
      53.2000       0.00000
      53.3000       0.00000
      53.4000       0.00000
      53.5000       0.00000
      53.6000       0.00000
      53.7000       0.00000
      53.8000       0.00000
      53.9000       0.00000
      54.0000       0.00000
      54.1000       0.00000
      54.2000       0.00000
      54.3000       0.00000
      54.4000       0.00000
      54.5000       0.00000
      54.6000       0.00000
      54.7000       0.00000
      54.8000       0.00000
      54.9000       0.00000
      55.0000       0.00000
      55.1000       0.00000
      55.2000       0.00000
      55.3000       0.00000
      55.4000       0.00000
      55.5000       0.00000
      55.6000       0.00000
      55.7000       0.00000
      55.8000       0.00000
      55.9000       0.00000
      56.0000       0.00000
      56.1000       0.00000
      56.2000       0.00000
      56.3000       0.00000
      56.4000       0.00000
      56.5000       0.00000
      56.6000       0.00000
      56.7000       0.00000
      56.8000       0.00000
      56.9000       0.00000
      57.0000       0.00000
      57.1000       0.00000
      57.2000       0.00000
      57.3000       0.00000
      57.4000       0.00000
      57.5000       0.00000
      57.6000       0.00000
      57.7000       0.00000
      57.8000       0.00000
      57.9000       0.00000
      58.0000       0.00000
      58.1000       0.00000
      58.2000       0.00000
      58.3000       0.00000
      58.4000       0.00000
      58.5000       0.00000
      58.6000       0.00000
      58.7000       0.00000
      58.8000       0.00000
      58.9000       0.00000
      59.0000       0.00000
      59.1000       0.00000
      59.2000       0.00000
      59.3000       0.00000
      59.4000       0.00000
      59.5000       0.00000
      59.6000       0.00000
      59.7000       0.00000
      59.8000       0.00000
      59.9000       0.00000
      60.0000       0.00000
      60.1000       0.00000
      60.2000       0.00000
      60.3000       0.00000
      60.4000       0.00000
      60.5000       0.00000
      60.6000       0.00000
      60.7000       0.00000
      60.8000       0.00000
      60.9000       0.00000
      61.0000       0.00000
      61.1000       0.00000
      61.2000       0.00000
      61.3000       0.00000
      61.4000       0.00000
      61.5000       0.00000
      61.6000       0.00000
      61.7000       0.00000
      61.8000       0.00000
      61.9000       0.00000
      62.0000       0.00000
      62.1000       0.00000
      62.2000       0.00000
      62.3000       0.00000
      62.4000       0.00000
      62.5000       0.00000
      62.6000       0.00000
      62.7000       0.00000
      62.8000       0.00000
      62.9000       0.00000
      63.0000       0.00000
      63.1000       0.00000
      63.2000       0.00000
      63.3000       0.00000
      63.4000       0.00000
      63.5000       0.00000
      63.6000       0.00000
      63.7000       0.00000
      63.8000       0.00000
      63.9000       0.00000
      64.0000       0.00000
      64.1000       0.00000
      64.2000       0.00000
      64.3000       0.00000
      64.4000       0.00000
      64.5000       0.00000
      64.6000       0.00000
      64.7000       0.00000
      64.8000       0.00000
      64.9000       0.00000
      65.0000       0.00000
      65.1000       0.00000
      65.2000       0.00000
      65.3000       0.00000
      65.4000       0.00000
      65.5000       0.00000
      65.6000       0.00000
      65.7000       0.00000
      65.8000       0.00000
      65.9000       0.00000
      66.0000       0.00000
      66.1000       0.00000
      66.2000       0.00000
      66.3000       0.00000
      66.4000       0.00000
      66.5000       0.00000
      66.6000       0.00000
      66.7000       0.00000
      66.8000       0.00000
      66.9000       0.00000
      67.0000       0.00000
      67.1000       0.00000
      67.2000       0.00000
      67.3000       0.00000
      67.4000       0.00000
      67.5000       0.00000
      67.6000       0.00000
      67.7000       0.00000
      67.8000       0.00000
      67.9000       0.00000
      68.0000       0.00000
      68.1000       0.00000
      68.2000       0.00000
      68.3000       0.00000
      68.4000       0.00000
      68.5000       0.00000
      68.6000       0.00000
      68.7000       0.00000
      68.8000       0.00000
      68.9000       0.00000
      69.0000       0.00000
      69.1000       0.00000
      69.2000       0.00000
      69.3000       0.00000
      69.4000       0.00000
      69.5000       0.00000
      69.6000       0.00000
      69.7000       0.00000
      69.8000       0.00000
      69.9000       0.00000
      70.0000       0.00000
      70.1000       0.00000
      70.2000       0.00000
      70.3000       0.00000
      70.4000       0.00000
      70.5000       0.00000
      70.6000       0.00000
      70.7000       0.00000
      70.8000       0.00000
      70.9000       0.00000
      71.0000       0.00000
      71.1000       0.00000
      71.2000       0.00000
      71.3000       0.00000
      71.4000       0.00000
      71.5000       0.00000
      71.6000       0.00000
      71.7000       0.00000
      71.8000       0.00000
      71.9000       0.00000
      72.0000       0.00000
