Filter C-poly
observation_date 2019-09-22 22:40:45
wavelength effective area
      1.00000   2.78570e-10
      1.10000   7.95341e-10
      1.20000   2.06791e-09
      1.30000   4.94566e-09
      1.40000   1.12244e-08
      1.50000   2.39515e-08
      1.60000   4.85002e-08
      1.70000   9.41847e-08
      1.80000   1.75405e-07
      1.90000   3.15373e-07
      2.00000   5.48498e-07
      2.10000   9.26855e-07
      2.20000   1.52904e-06
      2.30000   2.45924e-06
      2.40000   3.86311e-06
      2.50000   5.90749e-06
      2.60000   9.02136e-06
      2.70000   1.34596e-05
      2.80000   1.96981e-05
      2.90000   2.85336e-05
      3.00000   4.06893e-05
      3.10000   5.72808e-05
      3.20000   7.97619e-05
      3.30000   0.000109943
      3.40000   0.000149974
      3.50000   0.000202612
      3.60000   0.000272484
      3.70000   0.000362579
      3.80000   0.000480500
      3.90000   0.000633279
      4.00000   0.000829494
      4.10000    0.00108154
      4.20000    0.00140523
      4.30000    0.00182073
      4.40000    0.00235295
      4.50000    0.00303260
      4.60000    0.00389570
      4.70000    0.00500464
      4.80000    0.00642319
      4.90000    0.00813820
      5.00000     0.0105837
      5.10000     0.0135705
      5.20000     0.0174536
      5.30000     0.0222589
      5.40000     0.0283442
      5.50000     0.0361588
      5.60000     0.0447153
      5.70000     0.0582598
      5.80000     0.0684679
      5.90000      0.104798
      6.00000      0.141230
      6.10000      0.180971
      6.20000      0.222812
      6.30000      0.262974
      6.40000      0.297738
      6.50000      0.323708
      6.60000      0.336040
      6.70000      0.347563
      6.80000      0.349069
      6.90000      0.459363
      7.00000      0.501125
      7.10000      0.531682
      7.20000      0.556483
      7.30000      0.577192
      7.40000      0.593586
      7.50000      0.607154
      7.60000      0.617995
      7.70000      0.624444
      7.80000      0.625234
      7.90000      0.626816
      8.00000      0.909690
      8.10000      0.999252
      8.20000       1.01908
      8.30000       1.03440
      8.40000       1.04579
      8.50000       1.05561
      8.60000       1.06354
      8.70000       1.07025
      8.80000       1.07539
      8.90000       1.07950
      9.00000       1.08247
      9.10000       1.08436
      9.20000       1.08536
      9.30000       1.08538
      9.40000       1.08456
      9.50000       1.08298
      9.60000       1.08054
      9.70000       1.07739
      9.80000       1.07366
      9.90000       1.06938
      10.0000       1.06461
      10.1000       1.05937
      10.2000       1.05367
      10.3000       1.04746
      10.4000       1.04077
      10.5000       1.03361
      10.6000       1.02604
      10.7000       1.01806
      10.8000       1.00970
      10.9000       1.00097
      11.0000      0.991896
      11.1000      0.982511
      11.2000      0.972813
      11.3000      0.962844
      11.4000      0.952593
      11.5000      0.942054
      11.6000      0.931246
      11.7000      0.920089
      11.8000      0.908683
      11.9000      0.896888
      12.0000      0.883772
      12.1000      0.873766
      12.2000      0.879012
      12.3000      0.875007
      12.4000      0.864489
      12.5000      0.853323
      12.6000      0.841846
      12.7000      0.830192
      12.8000      0.818410
      12.9000      0.806513
      13.0000      0.794551
      13.1000      0.782555
      13.2000      0.770549
      13.3000      0.758548
      13.4000      0.746578
      13.5000      0.734770
      13.6000      0.723103
      13.7000      0.711484
      13.8000      0.699906
      13.9000      0.688400
      14.0000      0.676962
      14.1000      0.665573
      14.2000      0.654232
      14.3000      0.642938
      14.4000      0.631672
      14.5000      0.620450
      14.6000      0.609264
      14.7000      0.598119
      14.8000      0.587023
      14.9000      0.575980
      15.0000      0.565000
      15.1000      0.554096
      15.2000      0.543282
      15.3000      0.532555
      15.4000      0.521913
      15.5000      0.511364
      15.6000      0.500941
      15.7000      0.490624
      15.8000      0.480454
      15.9000      0.470411
      16.0000      0.460493
      16.1000      0.450709
      16.2000      0.441087
      16.3000      0.431587
      16.4000      0.422199
      16.5000      0.412922
      16.6000      0.403763
      16.7000      0.394726
      16.8000      0.385792
      16.9000      0.376962
      17.0000      0.368254
      17.1000      0.359668
      17.2000      0.351180
      17.3000      0.342804
      17.4000      0.334709
      17.5000      0.326872
      17.6000      0.319259
      17.7000      0.311909
      17.8000      0.304960
      17.9000      0.298123
      18.0000      0.291339
      18.1000      0.284658
      18.2000      0.278013
      18.3000      0.271390
      18.4000      0.264773
      18.5000      0.258180
      18.6000      0.251598
      18.7000      0.245000
      18.8000      0.238512
      18.9000      0.232109
      19.0000      0.225820
      19.1000      0.219656
      19.2000      0.213588
      19.3000      0.207662
      19.4000      0.201863
      19.5000      0.196163
      19.6000      0.190638
      19.7000      0.185215
      19.8000      0.179887
      19.9000      0.174720
      20.0000      0.169631
      20.1000      0.164646
      20.2000      0.159769
      20.3000      0.154960
      20.4000      0.150276
      20.5000      0.145668
      20.6000      0.141128
      20.7000      0.136710
      20.8000      0.132349
      20.9000      0.128079
      21.0000      0.123893
      21.1000      0.119780
      21.2000      0.115748
      21.3000      0.111767
      21.4000      0.107891
      21.5000      0.104060
      21.6000      0.100270
      21.7000     0.0965550
      21.8000     0.0928744
      21.9000     0.0891811
      22.0000     0.0855054
      22.1000     0.0818426
      22.2000     0.0780583
      22.3000     0.0741727
      22.4000     0.0692033
      22.5000     0.0639137
      22.6000     0.0540400
      22.7000     0.0484675
      22.8000     0.0637064
      22.9000     0.0821125
      23.0000      0.103762
      23.1000      0.117065
      23.2000      0.122746
      23.3000      0.122991
      23.4000      0.120545
      23.5000      0.117980
      23.6000      0.115397
      23.7000      0.112561
      23.8000      0.109717
      23.9000      0.106904
      24.0000      0.104102
      24.1000      0.101295
      24.2000     0.0985137
      24.3000     0.0957941
      24.4000     0.0931000
      24.5000     0.0904537
      24.6000     0.0878448
      24.7000     0.0853032
      24.8000     0.0827988
      24.9000     0.0803541
      25.0000     0.0779517
      25.1000     0.0756157
      25.2000     0.0733196
      25.3000     0.0710860
      25.4000     0.0688945
      25.5000     0.0667742
      25.6000     0.0646970
      25.7000     0.0627016
      25.8000     0.0607375
      25.9000     0.0588437
      26.0000     0.0569746
      26.1000     0.0551772
      26.2000     0.0533978
      26.3000     0.0516966
      26.4000     0.0500052
      26.5000     0.0483934
      26.6000     0.0467902
      26.7000     0.0452613
      26.8000     0.0437503
      26.9000     0.0422969
      27.0000     0.0408664
      27.1000     0.0394763
      27.2000     0.0381145
      27.3000     0.0368691
      27.4000     0.0357660
      27.5000     0.0346523
      27.6000     0.0334968
      27.7000     0.0323497
      27.8000     0.0312430
      27.9000     0.0301423
      28.0000     0.0290969
      28.1000     0.0280667
      28.2000     0.0270764
      28.3000     0.0261143
      28.4000     0.0251765
      28.5000     0.0242796
      28.6000     0.0233918
      28.7000     0.0225604
      28.8000     0.0217337
      28.9000     0.0209495
      29.0000     0.0201803
      29.1000     0.0194371
      29.2000     0.0187223
      29.3000     0.0180179
      29.4000     0.0173550
      29.5000     0.0166961
      29.6000     0.0160737
      29.7000     0.0154635
      29.8000     0.0148737
      29.9000     0.0143097
      30.0000     0.0137505
      30.1000     0.0132299
      30.2000     0.0127124
      30.3000     0.0127887
      30.4000     0.0132023
      30.5000     0.0134191
      30.6000     0.0129134
      30.7000     0.0124109
      30.8000     0.0119375
      30.9000     0.0114747
      31.0000     0.0110246
      31.1000     0.0105990
      31.2000     0.0101762
      31.3000    0.00978042
      31.4000    0.00939236
      31.5000    0.00901567
      31.6000    0.00866016
      31.7000    0.00830689
      31.8000    0.00797659
      31.9000    0.00765359
      32.0000    0.00733884
      32.1000    0.00704405
      32.2000    0.00675112
      32.3000    0.00647593
      32.4000    0.00620947
      32.5000    0.00594787
      32.6000    0.00571319
      32.7000    0.00547998
      32.8000    0.00525757
      32.9000    0.00504564
      33.0000    0.00483505
      33.1000    0.00464942
      33.2000    0.00446807
      33.3000    0.00429108
      33.4000    0.00412580
      33.5000    0.00396159
      33.6000    0.00380577
      33.7000    0.00365644
      33.8000    0.00350801
      33.9000    0.00337094
      34.0000    0.00323616
      34.1000    0.00310448
      34.2000    0.00298248
      34.3000    0.00286119
      34.4000    0.00274501
      34.5000    0.00263519
      34.6000    0.00252602
      34.7000    0.00242318
      34.8000    0.00232361
      34.9000    0.00222462
      35.0000    0.00213408
      35.1000    0.00204489
      35.2000    0.00195708
      35.3000    0.00187687
      35.4000    0.00179713
      35.5000    0.00171994
      35.6000    0.00164837
      35.7000    0.00157722
      35.8000    0.00150942
      35.9000    0.00144569
      36.0000    0.00138234
      36.1000    0.00132283
      36.2000    0.00126622
      36.3000    0.00120993
      36.4000    0.00115772
      36.5000    0.00110751
      36.6000    0.00105759
      36.7000    0.00101179
      36.8000   0.000967369
      36.9000   0.000923206
      37.0000   0.000883043
      37.1000   0.000843829
      37.2000   0.000804843
      37.3000   0.000769622
      37.4000   0.000735085
      37.5000   0.000700752
      37.6000   0.000669856
      37.7000   0.000639507
      37.8000   0.000609338
      37.9000   0.000582224
      38.0000   0.000555621
      38.1000   0.000529174
      38.2000   0.000505359
      38.3000   0.000482087
      38.4000   0.000458953
      38.5000   0.000438024
      38.6000   0.000417719
      38.7000   0.000397534
      38.8000   0.000379127
      38.9000   0.000361453
      39.0000   0.000343884
      39.1000   0.000327681
      39.2000   0.000312337
      39.3000   0.000297084
      39.4000   0.000282808
      39.5000   0.000269520
      39.6000   0.000256313
      39.7000   0.000243722
      39.8000   0.000232247
      39.9000   0.000220841
      40.0000   0.000209728
      40.1000   0.000199844
      40.2000   0.000190021
      40.3000   0.000180259
      40.4000   0.000171711
      40.5000   0.000163272
      40.6000   0.000154884
      40.7000   0.000147313
      40.8000   0.000140080
      40.9000   0.000132891
      41.0000   0.000126179
      41.1000   0.000119997
      41.2000   0.000113854
      41.3000   0.000107901
      41.4000   0.000102639
      41.5000   9.74086e-05
      41.6000   9.22114e-05
      41.7000   8.76538e-05
      41.8000   8.32101e-05
      41.9000   7.87943e-05
      42.0000   7.47324e-05
      42.1000   7.09699e-05
      42.2000   6.72305e-05
      42.3000   6.36068e-05
      42.4000   6.04290e-05
      42.5000   5.72706e-05
      42.6000   5.41323e-05
      42.7000   5.13621e-05
      42.8000   4.87020e-05
      42.9000   4.60582e-05
      43.0000   4.35728e-05
      43.1000   4.13397e-05
      43.2000   3.91205e-05
      43.3000   3.69154e-05
      43.4000     0.0371223
      43.5000     0.0850947
      43.6000      0.145300
      43.7000      0.191467
      43.8000      0.202088
      43.9000      0.199722
      44.0000      0.197363
      44.1000      0.195057
      44.2000      0.192759
      44.3000      0.190467
      44.4000      0.188202
      44.5000      0.185970
      44.6000      0.183744
      44.7000      0.181523
      44.8000      0.179352
      44.9000      0.177193
      45.0000      0.175039
      45.1000      0.172905
      45.2000      0.170811
      45.3000      0.168721
      45.4000      0.166637
      45.5000      0.164591
      45.6000      0.162566
      45.7000      0.160547
      45.8000      0.158534
      45.9000      0.156573
      46.0000      0.154617
      46.1000      0.152666
      46.2000      0.150805
      46.3000      0.149097
      46.4000      0.147393
      46.5000      0.145693
      46.6000      0.144049
      46.7000      0.142434
      46.8000      0.140823
      46.9000      0.139217
      47.0000      0.137687
      47.1000      0.136166
      47.2000      0.134649
      47.3000      0.133144
      47.4000      0.131678
      47.5000      0.130215
      47.6000      0.128757
      47.7000      0.127315
      47.8000      0.125898
      47.9000      0.124485
      48.0000      0.123075
      48.1000      0.121688
      48.2000      0.120320
      48.3000      0.118955
      48.4000      0.117594
      48.5000      0.116259
      48.6000      0.114937
      48.7000      0.113618
      48.8000      0.112303
      48.9000      0.111019
      49.0000      0.109744
      49.1000      0.108472
      49.2000      0.107204
      49.3000      0.105969
      49.4000      0.104740
      49.5000      0.103515
      49.6000      0.102292
      49.7000      0.101104
      49.8000     0.0999201
      49.9000     0.0987390
      50.0000     0.0975624
      50.1000     0.0964230
      50.2000     0.0953447
      50.3000     0.0942752
      50.4000     0.0932162
      50.5000     0.0921666
      50.6000     0.0911273
      50.7000     0.0900994
      50.8000     0.0890797
      50.9000     0.0880714
      51.0000     0.0870816
      51.1000     0.0861045
      51.2000     0.0851364
      51.3000     0.0841778
      51.4000     0.0832300
      51.5000     0.0822894
      51.6000     0.0813570
      51.7000     0.0804332
      51.8000     0.0795108
      51.9000     0.0785964
      52.0000     0.0776905
      52.1000     0.0767935
      52.2000     0.0759052
      52.3000     0.0750244
      52.4000     0.0741525
      52.5000     0.0732892
      52.6000     0.0724331
      52.7000     0.0715838
      52.8000     0.0707419
      52.9000     0.0699082
      53.0000     0.0690830
      53.1000     0.0682655
      53.2000     0.0674573
      53.3000     0.0666574
      53.4000     0.0658647
      53.5000     0.0650791
      53.6000     0.0643005
      53.7000     0.0635292
      53.8000     0.0627672
      53.9000     0.0620125
      54.0000     0.0612662
      54.1000     0.0605284
      54.2000     0.0597966
      54.3000     0.0590719
      54.4000     0.0583545
      54.5000     0.0576441
      54.6000     0.0569421
      54.7000     0.0562472
      54.8000     0.0555599
      54.9000     0.0548797
      55.0000     0.0542062
      55.1000     0.0535387
      55.2000     0.0528536
      55.3000     0.0521538
      55.4000     0.0514612
      55.5000     0.0507763
      55.6000     0.0500990
      55.7000     0.0494297
      55.8000     0.0487674
      55.9000     0.0481118
      56.0000     0.0474707
      56.1000     0.0468258
      56.2000     0.0461780
      56.3000     0.0455376
      56.4000     0.0449047
      56.5000     0.0442783
      56.6000     0.0436590
      56.7000     0.0430476
      56.8000     0.0424431
      56.9000     0.0418476
      57.0000     0.0412584
      57.1000     0.0406752
      57.2000     0.0400979
      57.3000     0.0395274
      57.4000     0.0389632
      57.5000     0.0384063
      57.6000     0.0378558
      57.7000     0.0373118
      57.8000     0.0367754
      57.9000     0.0362462
      58.0000     0.0357230
      58.1000     0.0352050
      58.2000     0.0346940
      58.3000     0.0341892
      58.4000     0.0336904
      58.5000     0.0331977
      58.6000     0.0327118
      58.7000     0.0322316
      58.8000     0.0317576
      58.9000     0.0312892
      59.0000     0.0308266
      59.1000     0.0303694
      59.2000     0.0299185
      59.3000     0.0294731
      59.4000     0.0290339
      59.5000     0.0286001
      59.6000     0.0281721
      59.7000     0.0277489
      59.8000     0.0273313
      59.9000     0.0269187
      60.0000     0.0265119
      60.1000     0.0261100
      60.2000     0.0257138
      60.3000     0.0253229
      60.4000     0.0249371
      60.5000     0.0245566
      60.6000     0.0241806
      60.7000     0.0238087
      60.8000     0.0234414
      60.9000     0.0230790
      61.0000     0.0227215
      61.1000     0.0223691
      61.2000     0.0220212
      61.3000     0.0216785
      61.4000     0.0213401
      61.5000     0.0210063
      61.6000     0.0206764
      61.7000     0.0203509
      61.8000     0.0200307
      61.9000     0.0197157
      62.0000     0.0194051
      62.1000     0.0190986
      62.2000     0.0187968
      62.3000     0.0184988
      62.4000     0.0182053
      62.5000     0.0179154
      62.6000     0.0176295
      62.7000     0.0173470
      62.8000     0.0170701
      62.9000     0.0167969
      63.0000     0.0165277
      63.1000     0.0162625
      63.2000     0.0160008
      63.3000     0.0157426
      63.4000     0.0154876
      63.5000     0.0152369
      63.6000     0.0149894
      63.7000     0.0147454
      63.8000     0.0145051
      63.9000     0.0142684
      64.0000     0.0140353
      64.1000     0.0138053
      64.2000     0.0135792
      64.3000     0.0133561
      64.4000     0.0131361
      64.5000     0.0129190
      64.6000     0.0127049
      64.7000     0.0124942
      64.8000     0.0122863
      64.9000     0.0120816
      65.0000     0.0118798
      65.1000     0.0116814
      65.2000     0.0114860
      65.3000     0.0112932
      65.4000     0.0111035
      65.5000     0.0109163
      65.6000     0.0107318
      65.7000     0.0105500
      65.8000     0.0103711
      65.9000     0.0101954
      66.0000     0.0100221
      66.1000    0.00985170
      66.2000    0.00968390
      66.3000    0.00951853
      66.4000    0.00935574
      66.5000    0.00919518
      66.6000    0.00903705
      66.7000    0.00888141
      66.8000    0.00872813
      66.9000    0.00858045
      67.0000    0.00843781
      67.1000    0.00829794
      67.2000    0.00816035
      67.3000    0.00802466
      67.4000    0.00789108
      67.5000    0.00775936
      67.6000    0.00762952
      67.7000    0.00750165
      67.8000    0.00737530
      67.9000    0.00725059
      68.0000    0.00712854
      68.1000    0.00700902
      68.2000    0.00689133
      68.3000    0.00677535
      68.4000    0.00666126
      68.5000    0.00654903
      68.6000    0.00643829
      68.7000    0.00632927
      68.8000    0.00622186
      68.9000    0.00611762
      69.0000    0.00602374
      69.1000    0.00593920
      69.2000    0.00585727
      69.3000    0.00577766
      69.4000    0.00570110
      69.5000    0.00562292
      69.6000    0.00554217
      69.7000    0.00546460
      69.8000    0.00539096
      69.9000    0.00531837
      70.0000    0.00524646
      70.1000    0.00517403
      70.2000    0.00510517
      70.3000    0.00503991
      70.4000    0.00497488
      70.5000    0.00491136
      70.6000    0.00484934
      70.7000    0.00478820
      70.8000    0.00472762
      70.9000    0.00466559
      71.0000    0.00460228
      71.1000    0.00454185
      71.2000    0.00448446
      71.3000    0.00442353
      71.4000    0.00435813
      71.5000    0.00429792
      71.6000    0.00424522
      71.7000    0.00419203
      71.8000    0.00413713
      71.9000    0.00408413
      72.0000    0.00403513
