Filter C-poly
observation_date 2021-09-22 22:45:45
wavelength effective area
      1.00000   2.78570e-10
      1.10000   7.95339e-10
      1.20000   2.06790e-09
      1.30000   4.94564e-09
      1.40000   1.12243e-08
      1.50000   2.39514e-08
      1.60000   4.84998e-08
      1.70000   9.41838e-08
      1.80000   1.75403e-07
      1.90000   3.15369e-07
      2.00000   5.48489e-07
      2.10000   9.26838e-07
      2.20000   1.52900e-06
      2.30000   2.45918e-06
      2.40000   3.86300e-06
      2.50000   5.90730e-06
      2.60000   9.02103e-06
      2.70000   1.34590e-05
      2.80000   1.96972e-05
      2.90000   2.85322e-05
      3.00000   4.06870e-05
      3.10000   5.72772e-05
      3.20000   7.97564e-05
      3.30000   0.000109935
      3.40000   0.000149961
      3.50000   0.000202594
      3.60000   0.000272457
      3.70000   0.000362541
      3.80000   0.000480445
      3.90000   0.000633202
      4.00000   0.000829384
      4.10000    0.00108139
      4.20000    0.00140501
      4.30000    0.00182043
      4.40000    0.00235254
      4.50000    0.00303203
      4.60000    0.00389492
      4.70000    0.00500357
      4.80000    0.00642173
      4.90000    0.00813623
      5.00000     0.0105810
      5.10000     0.0135668
      5.20000     0.0174486
      5.30000     0.0222521
      5.40000     0.0283351
      5.50000     0.0361465
      5.60000     0.0446993
      5.70000     0.0582379
      5.80000     0.0684408
      5.90000      0.104755
      6.00000      0.141169
      6.10000      0.180888
      6.20000      0.222706
      6.30000      0.262841
      6.40000      0.297581
      6.50000      0.323530
      6.60000      0.335847
      6.70000      0.347354
      6.80000      0.348850
      6.90000      0.459063
      7.00000      0.500784
      7.10000      0.531305
      7.20000      0.556072
      7.30000      0.576748
      7.40000      0.593111
      7.50000      0.606650
      7.60000      0.617462
      7.70000      0.623885
      7.80000      0.624654
      7.90000      0.626212
      8.00000      0.908782
      8.10000      0.998219
      8.20000       1.01799
      8.30000       1.03326
      8.40000       1.04459
      8.50000       1.05436
      8.60000       1.06223
      8.70000       1.06889
      8.80000       1.07399
      8.90000       1.07804
      9.00000       1.08096
      9.10000       1.08280
      9.20000       1.08375
      9.30000       1.08372
      9.40000       1.08285
      9.50000       1.08122
      9.60000       1.07874
      9.70000       1.07554
      9.80000       1.07176
      9.90000       1.06743
      10.0000       1.06262
      10.1000       1.05733
      10.2000       1.05159
      10.3000       1.04533
      10.4000       1.03859
      10.5000       1.03140
      10.6000       1.02378
      10.7000       1.01576
      10.8000       1.00735
      10.9000      0.998589
      11.0000      0.989476
      11.1000      0.980052
      11.2000      0.970317
      11.3000      0.960312
      11.4000      0.950027
      11.5000      0.939454
      11.6000      0.928614
      11.7000      0.917425
      11.8000      0.905990
      11.9000      0.894168
      12.0000      0.881029
      12.1000      0.870992
      12.2000      0.876158
      12.3000      0.872103
      12.4000      0.861556
      12.5000      0.850363
      12.6000      0.838862
      12.7000      0.827185
      12.8000      0.815381
      12.9000      0.803464
      13.0000      0.791484
      13.1000      0.779470
      13.2000      0.767448
      13.3000      0.755433
      13.4000      0.743449
      13.5000      0.731628
      13.6000      0.719950
      13.7000      0.708321
      13.8000      0.696733
      13.9000      0.685219
      14.0000      0.673774
      14.1000      0.662378
      14.2000      0.651032
      14.3000      0.639733
      14.4000      0.628465
      14.5000      0.617241
      14.6000      0.606055
      14.7000      0.594910
      14.8000      0.583816
      14.9000      0.572775
      15.0000      0.561799
      15.1000      0.550900
      15.2000      0.540093
      15.3000      0.529373
      15.4000      0.518740
      15.5000      0.508200
      15.6000      0.497788
      15.7000      0.487482
      15.8000      0.477324
      15.9000      0.467294
      16.0000      0.457391
      16.1000      0.447621
      16.2000      0.438015
      16.3000      0.428532
      16.4000      0.419162
      16.5000      0.409903
      16.6000      0.400763
      16.7000      0.391747
      16.8000      0.382834
      16.9000      0.374025
      17.0000      0.365340
      17.1000      0.356778
      17.2000      0.348314
      17.3000      0.339963
      17.4000      0.331894
      17.5000      0.324082
      17.6000      0.316494
      17.7000      0.309171
      17.8000      0.302247
      17.9000      0.295435
      18.0000      0.288678
      18.1000      0.282024
      18.2000      0.275406
      18.3000      0.268811
      18.4000      0.262223
      18.5000      0.255661
      18.6000      0.249109
      18.7000      0.242543
      18.8000      0.236088
      18.9000      0.229718
      19.0000      0.223462
      19.1000      0.217332
      19.2000      0.211298
      19.3000      0.205406
      19.4000      0.199641
      19.5000      0.193976
      19.6000      0.188485
      19.7000      0.183097
      19.8000      0.177803
      19.9000      0.172671
      20.0000      0.167617
      20.1000      0.162667
      20.2000      0.157825
      20.3000      0.153051
      20.4000      0.148402
      20.5000      0.143829
      20.6000      0.139325
      20.7000      0.134942
      20.8000      0.130618
      20.9000      0.126383
      21.0000      0.122233
      21.1000      0.118156
      21.2000      0.114161
      21.3000      0.110216
      21.4000      0.106377
      21.5000      0.102582
      21.6000     0.0988300
      21.7000     0.0951520
      21.8000     0.0915095
      21.9000     0.0878554
      22.0000     0.0842198
      22.1000     0.0805981
      22.2000     0.0768579
      22.3000     0.0730193
      22.4000     0.0681151
      22.5000     0.0628975
      22.6000     0.0531712
      22.7000     0.0477317
      22.8000     0.0628665
      22.9000     0.0810948
      23.0000      0.102507
      23.1000      0.115638
      23.2000      0.121233
      23.3000      0.121458
      23.4000      0.119026
      23.5000      0.116478
      23.6000      0.113913
      23.7000      0.111097
      23.8000      0.108275
      23.9000      0.105484
      24.0000      0.102705
      24.1000     0.0999210
      24.2000     0.0971635
      24.3000     0.0944675
      24.4000     0.0917973
      24.5000     0.0891750
      24.6000     0.0865902
      24.7000     0.0840725
      24.8000     0.0815919
      24.9000     0.0791710
      25.0000     0.0767924
      25.1000     0.0744798
      25.2000     0.0722071
      25.3000     0.0699966
      25.4000     0.0678282
      25.5000     0.0657306
      25.6000     0.0636760
      25.7000     0.0617025
      25.8000     0.0597604
      25.9000     0.0578880
      26.0000     0.0560404
      26.1000     0.0542640
      26.2000     0.0525056
      26.3000     0.0508248
      26.4000     0.0491539
      26.5000     0.0475619
      26.6000     0.0459788
      26.7000     0.0444692
      26.8000     0.0429775
      26.9000     0.0415429
      27.0000     0.0401312
      27.1000     0.0387596
      27.2000     0.0374163
      27.3000     0.0361876
      27.4000     0.0350989
      27.5000     0.0340001
      27.6000     0.0328607
      27.7000     0.0317300
      27.8000     0.0306392
      27.9000     0.0295546
      28.0000     0.0285245
      28.1000     0.0275097
      28.2000     0.0265344
      28.3000     0.0255870
      28.4000     0.0246637
      28.5000     0.0237808
      28.6000     0.0229070
      28.7000     0.0220888
      28.8000     0.0212756
      28.9000     0.0205041
      29.0000     0.0197476
      29.1000     0.0190168
      29.2000     0.0183141
      29.3000     0.0176217
      29.4000     0.0169702
      29.5000     0.0163228
      29.6000     0.0157114
      29.7000     0.0151120
      29.8000     0.0145328
      29.9000     0.0139790
      30.0000     0.0134302
      30.1000     0.0129192
      30.2000     0.0124113
      30.3000     0.0124834
      30.4000     0.0128846
      30.5000     0.0130935
      30.6000     0.0125976
      30.7000     0.0121050
      30.8000     0.0116408
      30.9000     0.0111873
      31.0000     0.0107462
      31.1000     0.0103293
      31.2000    0.00991518
      31.3000    0.00952761
      31.4000    0.00914767
      31.5000    0.00877896
      31.6000    0.00843101
      31.7000    0.00808538
      31.8000    0.00776225
      31.9000    0.00744634
      32.0000    0.00713859
      32.1000    0.00685037
      32.2000    0.00656408
      32.3000    0.00629515
      32.4000    0.00603482
      32.5000    0.00577932
      32.6000    0.00555011
      32.7000    0.00532243
      32.8000    0.00510532
      32.9000    0.00489848
      33.0000    0.00469304
      33.1000    0.00451195
      33.2000    0.00433508
      33.3000    0.00416252
      33.4000    0.00400137
      33.5000    0.00384133
      33.6000    0.00368947
      33.7000    0.00354398
      33.8000    0.00339941
      33.9000    0.00326591
      34.0000    0.00313468
      34.1000    0.00300650
      34.2000    0.00288774
      34.3000    0.00276972
      34.4000    0.00265669
      34.5000    0.00254986
      34.6000    0.00244371
      34.7000    0.00234372
      34.8000    0.00224694
      34.9000    0.00215075
      35.0000    0.00206277
      35.1000    0.00197614
      35.2000    0.00189086
      35.3000    0.00181297
      35.4000    0.00173556
      35.5000    0.00166065
      35.6000    0.00159120
      35.7000    0.00152218
      35.8000    0.00145642
      35.9000    0.00139462
      36.0000    0.00133321
      36.1000    0.00127553
      36.2000    0.00122067
      36.3000    0.00116614
      36.4000    0.00111557
      36.5000    0.00106694
      36.6000    0.00101862
      36.7000   0.000974286
      36.8000   0.000931295
      36.9000   0.000888575
      37.0000   0.000849723
      37.1000   0.000811800
      37.2000   0.000774114
      37.3000   0.000740066
      37.4000   0.000706690
      37.5000   0.000673524
      37.6000   0.000643676
      37.7000   0.000614367
      37.8000   0.000585245
      37.9000   0.000559070
      38.0000   0.000533398
      38.1000   0.000507887
      38.2000   0.000484915
      38.3000   0.000462474
      38.4000   0.000440173
      38.5000   0.000419999
      38.6000   0.000400431
      38.7000   0.000380988
      38.8000   0.000363258
      38.9000   0.000346238
      39.0000   0.000329328
      39.1000   0.000313733
      39.2000   0.000298968
      39.3000   0.000284298
      39.4000   0.000270569
      39.5000   0.000257791
      39.6000   0.000245097
      39.7000   0.000232998
      39.8000   0.000221972
      39.9000   0.000211017
      40.0000   0.000200348
      40.1000   0.000190857
      40.2000   0.000181429
      40.3000   0.000172064
      40.4000   0.000163863
      40.5000   0.000155769
      40.6000   0.000147728
      40.7000   0.000140471
      40.8000   0.000133539
      40.9000   0.000126653
      41.0000   0.000120224
      41.1000   0.000114304
      41.2000   0.000108424
      41.3000   0.000102727
      41.4000   9.76915e-05
      41.5000   9.26887e-05
      41.6000   8.77199e-05
      41.7000   8.33619e-05
      41.8000   7.91146e-05
      41.9000   7.48959e-05
      42.0000   7.10158e-05
      42.1000   6.74222e-05
      42.2000   6.38524e-05
      42.3000   6.03944e-05
      42.4000   5.73615e-05
      42.5000   5.43485e-05
      42.6000   5.13562e-05
      42.7000   4.87145e-05
      42.8000   4.61787e-05
      42.9000   4.36598e-05
      43.0000   4.12923e-05
      43.1000   3.91651e-05
      43.2000   3.70523e-05
      43.3000   3.49541e-05
      43.4000     0.0351401
      43.5000     0.0817295
      43.6000      0.141776
      43.7000      0.189404
      43.8000      0.201421
      43.9000      0.199059
      44.0000      0.196703
      44.1000      0.194401
      44.2000      0.192106
      44.3000      0.189817
      44.4000      0.187556
      44.5000      0.185327
      44.6000      0.183104
      44.7000      0.180887
      44.8000      0.178719
      44.9000      0.176563
      45.0000      0.174413
      45.1000      0.172283
      45.2000      0.170191
      45.3000      0.168105
      45.4000      0.166025
      45.5000      0.163983
      45.6000      0.161962
      45.7000      0.159946
      45.8000      0.157937
      45.9000      0.155979
      46.0000      0.154026
      46.1000      0.152079
      46.2000      0.150221
      46.3000      0.148516
      46.4000      0.146815
      46.5000      0.145118
      46.6000      0.143477
      46.7000      0.141864
      46.8000      0.140257
      46.9000      0.138653
      47.0000      0.137126
      47.1000      0.135608
      47.2000      0.134094
      47.3000      0.132591
      47.4000      0.131128
      47.5000      0.129668
      47.6000      0.128212
      47.7000      0.126773
      47.8000      0.125359
      47.9000      0.123948
      48.0000      0.122541
      48.1000      0.121157
      48.2000      0.119791
      48.3000      0.118429
      48.4000      0.117071
      48.5000      0.115739
      48.6000      0.114419
      48.7000      0.113103
      48.8000      0.111790
      48.9000      0.110509
      49.0000      0.109237
      49.1000      0.107968
      49.2000      0.106703
      49.3000      0.105471
      49.4000      0.104245
      49.5000      0.103022
      49.6000      0.101802
      49.7000      0.100617
      49.8000     0.0994361
      49.9000     0.0982578
      50.0000     0.0970841
      50.1000     0.0959474
      50.2000     0.0948718
      50.3000     0.0938050
      50.4000     0.0927486
      50.5000     0.0917018
      50.6000     0.0906653
      50.7000     0.0896402
      50.8000     0.0886233
      50.9000     0.0876179
      51.0000     0.0866310
      51.1000     0.0856570
      51.2000     0.0846918
      51.3000     0.0837362
      51.4000     0.0827913
      51.5000     0.0818536
      51.6000     0.0809241
      51.7000     0.0800031
      51.8000     0.0790834
      51.9000     0.0781716
      52.0000     0.0772683
      52.1000     0.0763739
      52.2000     0.0754882
      52.3000     0.0746100
      52.4000     0.0737406
      52.5000     0.0728800
      52.6000     0.0720266
      52.7000     0.0711799
      52.8000     0.0703409
      52.9000     0.0695099
      53.0000     0.0686875
      53.1000     0.0678729
      53.2000     0.0670675
      53.3000     0.0662705
      53.4000     0.0654805
      53.5000     0.0646977
      53.6000     0.0639217
      53.7000     0.0631531
      53.8000     0.0623937
      53.9000     0.0616416
      54.0000     0.0608978
      54.1000     0.0601625
      54.2000     0.0594332
      54.3000     0.0587110
      54.4000     0.0579962
      54.5000     0.0572883
      54.6000     0.0565888
      54.7000     0.0558965
      54.8000     0.0552118
      54.9000     0.0545341
      55.0000     0.0538633
      55.1000     0.0531985
      55.2000     0.0525161
      55.3000     0.0518193
      55.4000     0.0511295
      55.5000     0.0504475
      55.6000     0.0497731
      55.7000     0.0491066
      55.8000     0.0484471
      55.9000     0.0477942
      56.0000     0.0471559
      56.1000     0.0465136
      56.2000     0.0458687
      56.3000     0.0452310
      56.4000     0.0446008
      56.5000     0.0439772
      56.6000     0.0433606
      56.7000     0.0427520
      56.8000     0.0421502
      56.9000     0.0415574
      57.0000     0.0409709
      57.1000     0.0403904
      57.2000     0.0398158
      57.3000     0.0392479
      57.4000     0.0386864
      57.5000     0.0381321
      57.6000     0.0375842
      57.7000     0.0370429
      57.8000     0.0365090
      57.9000     0.0359823
      58.0000     0.0354617
      58.1000     0.0349462
      58.2000     0.0344377
      58.3000     0.0339354
      58.4000     0.0334392
      58.5000     0.0329489
      58.6000     0.0324655
      58.7000     0.0319878
      58.8000     0.0315163
      58.9000     0.0310503
      59.0000     0.0305902
      59.1000     0.0301355
      59.2000     0.0296869
      59.3000     0.0292440
      59.4000     0.0288071
      59.5000     0.0283757
      59.6000     0.0279500
      59.7000     0.0275292
      59.8000     0.0271138
      59.9000     0.0267035
      60.0000     0.0262989
      60.1000     0.0258992
      60.2000     0.0255052
      60.3000     0.0251164
      60.4000     0.0247327
      60.5000     0.0243544
      60.6000     0.0239805
      60.7000     0.0236108
      60.8000     0.0232456
      60.9000     0.0228854
      61.0000     0.0225300
      61.1000     0.0221797
      61.2000     0.0218340
      61.3000     0.0214934
      61.4000     0.0211571
      61.5000     0.0208254
      61.6000     0.0204976
      61.7000     0.0201742
      61.8000     0.0198561
      61.9000     0.0195431
      62.0000     0.0192344
      62.1000     0.0189300
      62.2000     0.0186300
      62.3000     0.0183340
      62.4000     0.0180423
      62.5000     0.0177543
      62.6000     0.0174702
      62.7000     0.0171895
      62.8000     0.0169143
      62.9000     0.0166429
      63.0000     0.0163755
      63.1000     0.0161120
      63.2000     0.0158520
      63.3000     0.0155955
      63.4000     0.0153422
      63.5000     0.0150932
      63.6000     0.0148474
      63.7000     0.0146051
      63.8000     0.0143665
      63.9000     0.0141315
      64.0000     0.0139001
      64.1000     0.0136718
      64.2000     0.0134473
      64.3000     0.0132259
      64.4000     0.0130075
      64.5000     0.0127920
      64.6000     0.0125796
      64.7000     0.0123704
      64.8000     0.0121641
      64.9000     0.0119610
      65.0000     0.0117607
      65.1000     0.0115638
      65.2000     0.0113699
      65.3000     0.0111785
      65.4000     0.0109902
      65.5000     0.0108045
      65.6000     0.0106213
      65.7000     0.0104409
      65.8000     0.0102634
      65.9000     0.0100890
      66.0000    0.00991705
      66.1000    0.00974794
      66.2000    0.00958146
      66.3000    0.00941738
      66.4000    0.00925588
      66.5000    0.00909661
      66.6000    0.00893976
      66.7000    0.00878539
      66.8000    0.00863338
      66.9000    0.00848695
      67.0000    0.00834552
      67.1000    0.00820686
      67.2000    0.00807047
      67.3000    0.00793596
      67.4000    0.00780355
      67.5000    0.00767300
      67.6000    0.00754432
      67.7000    0.00741758
      67.8000    0.00729236
      67.9000    0.00716877
      68.0000    0.00704783
      68.1000    0.00692940
      68.2000    0.00681280
      68.3000    0.00669788
      68.4000    0.00658484
      68.5000    0.00647364
      68.6000    0.00636392
      68.7000    0.00625590
      68.8000    0.00614948
      68.9000    0.00604620
      69.0000    0.00595318
      69.1000    0.00586939
      69.2000    0.00578819
      69.3000    0.00570928
      69.4000    0.00563341
      69.5000    0.00555593
      69.6000    0.00547592
      69.7000    0.00539907
      69.8000    0.00532610
      69.9000    0.00525418
      70.0000    0.00518294
      70.1000    0.00511119
      70.2000    0.00504297
      70.3000    0.00497832
      70.4000    0.00491388
      70.5000    0.00485096
      70.6000    0.00478953
      70.7000    0.00472896
      70.8000    0.00466894
      70.9000    0.00460750
      71.0000    0.00454481
      71.1000    0.00448496
      71.2000    0.00442811
      71.3000    0.00436778
      71.4000    0.00430303
      71.5000    0.00424341
      71.6000    0.00419121
      71.7000    0.00413853
      71.8000    0.00408417
      71.9000    0.00403168
      72.0000    0.00398315
