Filter C-poly
observation_date 2008-09-22 22:40:45
wavelength effective area
      1.00000   2.78571e-10
      1.10000   7.95344e-10
      1.20000   2.06792e-09
      1.30000   4.94569e-09
      1.40000   1.12244e-08
      1.50000   2.39518e-08
      1.60000   4.85008e-08
      1.70000   9.41861e-08
      1.80000   1.75408e-07
      1.90000   3.15380e-07
      2.00000   5.48511e-07
      2.10000   9.26881e-07
      2.20000   1.52909e-06
      2.30000   2.45934e-06
      2.40000   3.86327e-06
      2.50000   5.90777e-06
      2.60000   9.02185e-06
      2.70000   1.34604e-05
      2.80000   1.96994e-05
      2.90000   2.85358e-05
      3.00000   4.06927e-05
      3.10000   5.72861e-05
      3.20000   7.97701e-05
      3.30000   0.000109955
      3.40000   0.000149992
      3.50000   0.000202639
      3.60000   0.000272524
      3.70000   0.000362637
      3.80000   0.000480583
      3.90000   0.000633398
      4.00000   0.000829662
      4.10000    0.00108178
      4.20000    0.00140555
      4.30000    0.00182118
      4.40000    0.00235358
      4.50000    0.00303347
      4.60000    0.00389689
      4.70000    0.00500627
      4.80000    0.00642541
      4.90000    0.00814119
      5.00000     0.0105878
      5.10000     0.0135761
      5.20000     0.0174613
      5.30000     0.0222692
      5.40000     0.0283581
      5.50000     0.0361774
      5.60000     0.0447396
      5.70000     0.0582932
      5.80000     0.0685091
      5.90000      0.104865
      6.00000      0.141324
      6.10000      0.181097
      6.20000      0.222975
      6.30000      0.263175
      6.40000      0.297976
      6.50000      0.323979
      6.60000      0.336334
      6.70000      0.347880
      6.80000      0.349402
      6.90000      0.459820
      7.00000      0.501645
      7.10000      0.532256
      7.20000      0.557109
      7.30000      0.577867
      7.40000      0.594308
      7.50000      0.607921
      7.60000      0.618806
      7.70000      0.625295
      7.80000      0.626118
      7.90000      0.627735
      8.00000      0.911073
      8.10000       1.00083
      8.20000       1.02074
      8.30000       1.03615
      8.40000       1.04762
      8.50000       1.05752
      8.60000       1.06552
      8.70000       1.07231
      8.80000       1.07754
      8.90000       1.08172
      9.00000       1.08477
      9.10000       1.08673
      9.20000       1.08781
      9.30000       1.08791
      9.40000       1.08717
      9.50000       1.08565
      9.60000       1.08330
      9.70000       1.08022
      9.80000       1.07656
      9.90000       1.07235
      10.0000       1.06766
      10.1000       1.06248
      10.2000       1.05686
      10.3000       1.05071
      10.4000       1.04408
      10.5000       1.03699
      10.6000       1.02948
      10.7000       1.02157
      10.8000       1.01327
      10.9000       1.00460
      11.0000      0.995589
      11.1000      0.986261
      11.2000      0.976620
      11.3000      0.966707
      11.4000      0.956510
      11.5000      0.946022
      11.6000      0.935264
      11.7000      0.924154
      11.8000      0.912794
      11.9000      0.901042
      12.0000      0.887960
      12.1000      0.878002
      12.2000      0.883369
      12.3000      0.879443
      12.4000      0.868970
      12.5000      0.857844
      12.6000      0.846405
      12.7000      0.834786
      12.8000      0.823037
      12.9000      0.811171
      13.0000      0.799239
      13.1000      0.787270
      13.2000      0.775289
      13.3000      0.763311
      13.4000      0.751363
      13.5000      0.739574
      13.6000      0.727925
      13.7000      0.716323
      13.8000      0.704759
      13.9000      0.693267
      14.0000      0.681841
      14.1000      0.670462
      14.2000      0.659129
      14.3000      0.647842
      14.4000      0.636581
      14.5000      0.625362
      14.6000      0.614178
      14.7000      0.603033
      14.8000      0.591934
      14.9000      0.580888
      15.0000      0.569902
      15.1000      0.558991
      15.2000      0.548168
      15.3000      0.537430
      15.4000      0.526776
      15.5000      0.516213
      15.6000      0.505775
      15.7000      0.495441
      15.8000      0.485253
      15.9000      0.475190
      16.0000      0.465251
      16.1000      0.455444
      16.2000      0.445799
      16.3000      0.436274
      16.4000      0.426860
      16.5000      0.417555
      16.6000      0.408367
      16.7000      0.399300
      16.8000      0.390335
      16.9000      0.381472
      17.0000      0.372730
      17.1000      0.364108
      17.2000      0.355584
      17.3000      0.347170
      17.4000      0.339038
      17.5000      0.331161
      17.6000      0.323510
      17.7000      0.316120
      17.8000      0.309133
      17.9000      0.302257
      18.0000      0.295434
      18.1000      0.288712
      18.2000      0.282024
      18.3000      0.275359
      18.4000      0.268698
      18.5000      0.262060
      18.6000      0.255430
      18.7000      0.248784
      18.8000      0.242247
      18.9000      0.235793
      19.0000      0.229453
      19.1000      0.223239
      19.2000      0.217119
      19.3000      0.211141
      19.4000      0.205290
      19.5000      0.199537
      19.6000      0.193959
      19.7000      0.188483
      19.8000      0.183102
      19.9000      0.177883
      20.0000      0.172741
      20.1000      0.167703
      20.2000      0.162772
      20.3000      0.157909
      20.4000      0.153172
      20.5000      0.148509
      20.6000      0.143914
      20.7000      0.139443
      20.8000      0.135027
      20.9000      0.130702
      21.0000      0.126460
      21.1000      0.122292
      21.2000      0.118205
      21.3000      0.114167
      21.4000      0.110236
      21.5000      0.106348
      21.6000      0.102501
      21.7000     0.0987285
      21.8000     0.0949894
      21.9000     0.0912357
      22.0000     0.0874982
      22.1000     0.0837722
      22.2000     0.0799199
      22.3000     0.0759619
      22.4000     0.0708917
      22.5000     0.0654908
      22.6000     0.0553886
      22.7000     0.0496084
      22.8000     0.0650056
      22.9000     0.0836850
      23.0000      0.105701
      23.1000      0.119270
      23.2000      0.125083
      23.3000      0.125359
      23.4000      0.122891
      23.5000      0.120302
      23.6000      0.117693
      23.7000      0.114824
      23.8000      0.111948
      23.9000      0.109101
      24.0000      0.106264
      24.1000      0.103421
      24.2000      0.100603
      24.3000     0.0978474
      24.4000     0.0951166
      24.5000     0.0924336
      24.6000     0.0897878
      24.7000     0.0872096
      24.8000     0.0846684
      24.9000     0.0821873
      25.0000     0.0797485
      25.1000     0.0773765
      25.2000     0.0750443
      25.3000     0.0727752
      25.4000     0.0705483
      25.5000     0.0683932
      25.6000     0.0662813
      25.7000     0.0642522
      25.8000     0.0622543
      25.9000     0.0603275
      26.0000     0.0584252
      26.1000     0.0565957
      26.2000     0.0547837
      26.3000     0.0530513
      26.4000     0.0513281
      26.5000     0.0496859
      26.6000     0.0480519
      26.7000     0.0464933
      26.8000     0.0449524
      26.9000     0.0434699
      27.0000     0.0420104
      27.1000     0.0405917
      27.2000     0.0392014
      27.3000     0.0379303
      27.4000     0.0368050
      27.5000     0.0356681
      27.6000     0.0344878
      27.7000     0.0333155
      27.8000     0.0321843
      27.9000     0.0310587
      28.0000     0.0299894
      28.1000     0.0289354
      28.2000     0.0279220
      28.3000     0.0269371
      28.4000     0.0259768
      28.5000     0.0250583
      28.6000     0.0241487
      28.7000     0.0232968
      28.8000     0.0224494
      28.9000     0.0216454
      29.0000     0.0208566
      29.1000     0.0200941
      29.2000     0.0193607
      29.3000     0.0186375
      29.4000     0.0179571
      29.5000     0.0172803
      29.6000     0.0166409
      29.7000     0.0160139
      29.8000     0.0154075
      29.9000     0.0148276
      30.0000     0.0142525
      30.1000     0.0137169
      30.2000     0.0131843
      30.3000     0.0132674
      30.4000     0.0137006
      30.5000     0.0139298
      30.6000     0.0134090
      30.7000     0.0128912
      30.8000     0.0124032
      30.9000     0.0119261
      31.0000     0.0114617
      31.1000     0.0110228
      31.2000     0.0105863
      31.3000     0.0101778
      31.4000    0.00977710
      31.5000    0.00938796
      31.6000    0.00902065
      31.7000    0.00865544
      31.8000    0.00831397
      31.9000    0.00797989
      32.0000    0.00765421
      32.1000    0.00734916
      32.2000    0.00704586
      32.3000    0.00676088
      32.4000    0.00648484
      32.5000    0.00621368
      32.6000    0.00597043
      32.7000    0.00572856
      32.8000    0.00549784
      32.9000    0.00527794
      33.0000    0.00505931
      33.1000    0.00486657
      33.2000    0.00467819
      33.3000    0.00449427
      33.4000    0.00432250
      33.5000    0.00415176
      33.6000    0.00398970
      33.7000    0.00383435
      33.8000    0.00367986
      33.9000    0.00353719
      34.0000    0.00339684
      34.1000    0.00325966
      34.2000    0.00313256
      34.3000    0.00300612
      34.4000    0.00288498
      34.5000    0.00277046
      34.6000    0.00265655
      34.7000    0.00254922
      34.8000    0.00244527
      34.9000    0.00234186
      35.0000    0.00224729
      35.1000    0.00215409
      35.2000    0.00206226
      35.3000    0.00197839
      35.4000    0.00189497
      35.5000    0.00181418
      35.6000    0.00173927
      35.7000    0.00166476
      35.8000    0.00159373
      35.9000    0.00152696
      36.0000    0.00146055
      36.1000    0.00139815
      36.2000    0.00133877
      36.3000    0.00127970
      36.4000    0.00122490
      36.5000    0.00117218
      36.6000    0.00111973
      36.7000    0.00107162
      36.8000    0.00102493
      36.9000   0.000978479
      37.0000   0.000936241
      37.1000   0.000894980
      37.2000   0.000853932
      37.3000   0.000816853
      37.4000   0.000780474
      37.5000   0.000744286
      37.6000   0.000711726
      37.7000   0.000679724
      37.8000   0.000647891
      37.9000   0.000619286
      38.0000   0.000591204
      38.1000   0.000563270
      38.2000   0.000538118
      38.3000   0.000513526
      38.4000   0.000489063
      38.5000   0.000466934
      38.6000   0.000445453
      38.7000   0.000424085
      38.8000   0.000404599
      38.9000   0.000385881
      39.0000   0.000367262
      39.1000   0.000350090
      39.2000   0.000333822
      39.3000   0.000317641
      39.4000   0.000302492
      39.5000   0.000288388
      39.6000   0.000274362
      39.7000   0.000260984
      39.8000   0.000248792
      39.9000   0.000236665
      40.0000   0.000224843
      40.1000   0.000214330
      40.2000   0.000203873
      40.3000   0.000193475
      40.4000   0.000184373
      40.5000   0.000175381
      40.6000   0.000166436
      40.7000   0.000158364
      40.8000   0.000150647
      40.9000   0.000142973
      41.0000   0.000135806
      41.1000   0.000129204
      41.2000   0.000122639
      41.3000   0.000116273
      41.4000   0.000110647
      41.5000   0.000105051
      41.6000   9.94867e-05
      41.7000   9.46080e-05
      41.8000   8.98485e-05
      41.9000   8.51153e-05
      42.0000   8.07608e-05
      42.1000   7.67265e-05
      42.2000   7.27139e-05
      42.3000   6.88232e-05
      42.4000   6.54120e-05
      42.5000   6.20190e-05
      42.6000   5.86450e-05
      42.7000   5.56671e-05
      42.8000   5.28061e-05
      42.9000   4.99606e-05
      43.0000   4.72846e-05
      43.1000   4.48802e-05
      43.2000   4.24891e-05
      43.3000   4.01113e-05
      43.4000     0.0403533
      43.5000     0.0905725
      43.6000      0.151015
      43.7000      0.194775
      43.8000      0.203106
      43.9000      0.200735
      44.0000      0.198371
      44.1000      0.196060
      44.2000      0.193757
      44.3000      0.191460
      44.4000      0.189190
      44.5000      0.186953
      44.6000      0.184721
      44.7000      0.182495
      44.8000      0.180319
      44.9000      0.178155
      45.0000      0.175996
      45.1000      0.173857
      45.2000      0.171756
      45.3000      0.169662
      45.4000      0.167572
      45.5000      0.165521
      45.6000      0.163491
      45.7000      0.161466
      45.8000      0.159448
      45.9000      0.157482
      46.0000      0.155520
      46.1000      0.153563
      46.2000      0.151697
      46.3000      0.149984
      46.4000      0.148276
      46.5000      0.146571
      46.6000      0.144923
      46.7000      0.143304
      46.8000      0.141689
      46.9000      0.140078
      47.0000      0.138544
      47.1000      0.137020
      47.2000      0.135499
      47.3000      0.133989
      47.4000      0.132519
      47.5000      0.131053
      47.6000      0.129590
      47.7000      0.128144
      47.8000      0.126723
      47.9000      0.125306
      48.0000      0.123892
      48.1000      0.122501
      48.2000      0.121129
      48.3000      0.119760
      48.4000      0.118394
      48.5000      0.117055
      48.6000      0.115729
      48.7000      0.114406
      48.8000      0.113086
      48.9000      0.111798
      49.0000      0.110519
      49.1000      0.109243
      49.2000      0.107970
      49.3000      0.106732
      49.4000      0.105499
      49.5000      0.104269
      49.6000      0.103041
      49.7000      0.101849
      49.8000      0.100661
      49.9000     0.0994755
      50.0000     0.0982944
      50.1000     0.0971508
      50.2000     0.0960680
      50.3000     0.0949942
      50.4000     0.0939309
      50.5000     0.0928770
      50.6000     0.0918335
      50.7000     0.0908014
      50.8000     0.0897774
      50.9000     0.0887650
      51.0000     0.0877710
      51.1000     0.0867898
      51.2000     0.0858175
      51.3000     0.0848546
      51.4000     0.0839026
      51.5000     0.0829578
      51.6000     0.0820211
      51.7000     0.0810931
      51.8000     0.0801664
      51.9000     0.0792478
      52.0000     0.0783376
      52.1000     0.0774363
      52.2000     0.0765438
      52.3000     0.0756587
      52.4000     0.0747825
      52.5000     0.0739150
      52.6000     0.0730547
      52.7000     0.0722012
      52.8000     0.0713552
      52.9000     0.0705174
      53.0000     0.0696880
      53.1000     0.0688665
      53.2000     0.0680543
      53.3000     0.0672504
      53.4000     0.0664537
      53.5000     0.0656641
      53.6000     0.0648814
      53.7000     0.0641062
      53.8000     0.0633401
      53.9000     0.0625815
      54.0000     0.0618311
      54.1000     0.0610894
      54.2000     0.0603536
      54.3000     0.0596249
      54.4000     0.0589035
      54.5000     0.0581891
      54.6000     0.0574831
      54.7000     0.0567842
      54.8000     0.0560930
      54.9000     0.0554089
      55.0000     0.0547315
      55.1000     0.0540601
      55.2000     0.0533709
      55.3000     0.0526668
      55.4000     0.0519699
      55.5000     0.0512808
      55.6000     0.0505992
      55.7000     0.0499257
      55.8000     0.0492592
      55.9000     0.0485993
      56.0000     0.0479542
      56.1000     0.0473049
      56.2000     0.0466530
      56.3000     0.0460082
      56.4000     0.0453710
      56.5000     0.0447404
      56.6000     0.0441168
      56.7000     0.0435011
      56.8000     0.0428923
      56.9000     0.0422926
      57.0000     0.0416993
      57.1000     0.0411120
      57.2000     0.0405305
      57.3000     0.0399559
      57.4000     0.0393876
      57.5000     0.0388267
      57.6000     0.0382722
      57.7000     0.0377242
      57.8000     0.0371839
      57.9000     0.0366508
      58.0000     0.0361238
      58.1000     0.0356020
      58.2000     0.0350871
      58.3000     0.0345785
      58.4000     0.0340761
      58.5000     0.0335796
      58.6000     0.0330900
      58.7000     0.0326061
      58.8000     0.0321284
      58.9000     0.0316563
      59.0000     0.0311901
      59.1000     0.0307293
      59.2000     0.0302746
      59.3000     0.0298257
      59.4000     0.0293828
      59.5000     0.0289454
      59.6000     0.0285138
      59.7000     0.0280870
      59.8000     0.0276659
      59.9000     0.0272497
      60.0000     0.0268394
      60.1000     0.0264340
      60.2000     0.0260343
      60.3000     0.0256400
      60.4000     0.0252507
      60.5000     0.0248670
      60.6000     0.0244876
      60.7000     0.0241123
      60.8000     0.0237417
      60.9000     0.0233761
      61.0000     0.0230153
      61.1000     0.0226597
      61.2000     0.0223086
      61.3000     0.0219628
      61.4000     0.0216212
      61.5000     0.0212843
      61.6000     0.0209514
      61.7000     0.0206228
      61.8000     0.0202995
      61.9000     0.0199815
      62.0000     0.0196679
      62.1000     0.0193585
      62.2000     0.0190537
      62.3000     0.0187528
      62.4000     0.0184564
      62.5000     0.0181636
      62.6000     0.0178748
      62.7000     0.0175895
      62.8000     0.0173097
      62.9000     0.0170338
      63.0000     0.0167618
      63.1000     0.0164939
      63.2000     0.0162295
      63.3000     0.0159686
      63.4000     0.0157109
      63.5000     0.0154576
      63.6000     0.0152074
      63.7000     0.0149608
      63.8000     0.0147180
      63.9000     0.0144788
      64.0000     0.0142432
      64.1000     0.0140107
      64.2000     0.0137822
      64.3000     0.0135567
      64.4000     0.0133342
      64.5000     0.0131147
      64.6000     0.0128983
      64.7000     0.0126851
      64.8000     0.0124749
      64.9000     0.0122679
      65.0000     0.0120639
      65.1000     0.0118631
      65.2000     0.0116655
      65.3000     0.0114704
      65.4000     0.0112784
      65.5000     0.0110891
      65.6000     0.0109023
      65.7000     0.0107184
      65.8000     0.0105373
      65.9000     0.0103594
      66.0000     0.0101840
      66.1000     0.0100115
      66.2000    0.00984163
      66.3000    0.00967419
      66.4000    0.00950936
      66.5000    0.00934678
      66.6000    0.00918665
      66.7000    0.00902904
      66.8000    0.00887381
      66.9000    0.00872423
      67.0000    0.00857973
      67.1000    0.00843803
      67.2000    0.00829864
      67.3000    0.00816117
      67.4000    0.00802583
      67.5000    0.00789237
      67.6000    0.00776081
      67.7000    0.00763124
      67.8000    0.00750321
      67.9000    0.00737682
      68.0000    0.00725312
      68.1000    0.00713195
      68.2000    0.00701264
      68.3000    0.00689504
      68.4000    0.00677936
      68.5000    0.00666556
      68.6000    0.00655326
      68.7000    0.00644269
      68.8000    0.00633375
      68.9000    0.00622802
      69.0000    0.00613283
      69.1000    0.00604712
      69.2000    0.00596405
      69.3000    0.00588333
      69.4000    0.00580572
      69.5000    0.00572643
      69.6000    0.00564452
      69.7000    0.00556584
      69.8000    0.00549115
      69.9000    0.00541752
      70.0000    0.00534458
      70.1000    0.00527110
      70.2000    0.00520124
      70.3000    0.00513505
      70.4000    0.00506907
      70.5000    0.00500464
      70.6000    0.00494173
      70.7000    0.00487971
      70.8000    0.00481825
      70.9000    0.00475530
      71.0000    0.00469105
      71.1000    0.00462974
      71.2000    0.00457150
      71.3000    0.00450966
      71.4000    0.00444325
      71.5000    0.00438213
      71.6000    0.00432866
      71.7000    0.00427469
      71.8000    0.00421897
      71.9000    0.00416517
      72.0000    0.00411545
