Filter C-poly
observation_date 07Jan2024
wavelength effective area
      1.00000   2.78569e-10
      1.10000   7.95337e-10
      1.20000   2.06790e-09
      1.30000   4.94561e-09
      1.40000   1.12242e-08
      1.50000   2.39512e-08
      1.60000   4.84993e-08
      1.70000   9.41827e-08
      1.80000   1.75401e-07
      1.90000   3.15364e-07
      2.00000   5.48479e-07
      2.10000   9.26818e-07
      2.20000   1.52896e-06
      2.30000   2.45911e-06
      2.40000   3.86287e-06
      2.50000   5.90708e-06
      2.60000   9.02065e-06
      2.70000   1.34584e-05
      2.80000   1.96962e-05
      2.90000   2.85305e-05
      3.00000   4.06844e-05
      3.10000   5.72731e-05
      3.20000   7.97501e-05
      3.30000   0.000109925
      3.40000   0.000149947
      3.50000   0.000202573
      3.60000   0.000272427
      3.70000   0.000362497
      3.80000   0.000480381
      3.90000   0.000633111
      4.00000   0.000829256
      4.10000    0.00108121
      4.20000    0.00140476
      4.30000    0.00182008
      4.40000    0.00235205
      4.50000    0.00303137
      4.60000    0.00389401
      4.70000    0.00500232
      4.80000    0.00642002
      4.90000    0.00813394
      5.00000     0.0105778
      5.10000     0.0135625
      5.20000     0.0174428
      5.30000     0.0222442
      5.40000     0.0283245
      5.50000     0.0361322
      5.60000     0.0446807
      5.70000     0.0582124
      5.80000     0.0684092
      5.90000      0.104704
      6.00000      0.141097
      6.10000      0.180791
      6.20000      0.222581
      6.30000      0.262687
      6.40000      0.297398
      6.50000      0.323322
      6.60000      0.335622
      6.70000      0.347111
      6.80000      0.348595
      6.90000      0.458713
      7.00000      0.500386
      7.10000      0.530865
      7.20000      0.555593
      7.30000      0.576232
      7.40000      0.592559
      7.50000      0.606062
      7.60000      0.616841
      7.70000      0.623234
      7.80000      0.623977
      7.90000      0.625509
      8.00000      0.907724
      8.10000      0.997015
      8.20000       1.01671
      8.30000       1.03192
      8.40000       1.04320
      8.50000       1.05290
      8.60000       1.06072
      8.70000       1.06731
      8.80000       1.07235
      8.90000       1.07634
      9.00000       1.07921
      9.10000       1.08098
      9.20000       1.08188
      9.30000       1.08179
      9.40000       1.08086
      9.50000       1.07917
      9.60000       1.07664
      9.70000       1.07338
      9.80000       1.06955
      9.90000       1.06517
      10.0000       1.06030
      10.1000       1.05495
      10.2000       1.04916
      10.3000       1.04285
      10.4000       1.03606
      10.5000       1.02881
      10.6000       1.02115
      10.7000       1.01308
      10.8000       1.00463
      10.9000      0.995818
      11.0000      0.986659
      11.1000      0.977192
      11.2000      0.967414
      11.3000      0.957368
      11.4000      0.947042
      11.5000      0.936430
      11.6000      0.925552
      11.7000      0.914328
      11.8000      0.902858
      11.9000      0.891004
      12.0000      0.877839
      12.1000      0.867768
      12.2000      0.872841
      12.3000      0.868727
      12.4000      0.858146
      12.5000      0.846923
      12.6000      0.835394
      12.7000      0.823691
      12.8000      0.811862
      12.9000      0.799923
      13.0000      0.787921
      13.1000      0.775887
      13.2000      0.763847
      13.3000      0.751814
      13.4000      0.739815
      13.5000      0.727980
      13.6000      0.716289
      13.7000      0.704648
      13.8000      0.693050
      13.9000      0.681526
      14.0000      0.670073
      14.1000      0.658671
      14.2000      0.647319
      14.3000      0.636016
      14.4000      0.624745
      14.5000      0.613519
      14.6000      0.602332
      14.7000      0.591189
      14.8000      0.580097
      14.9000      0.569061
      15.0000      0.558090
      15.1000      0.547197
      15.2000      0.536397
      15.3000      0.525686
      15.4000      0.515063
      15.5000      0.504535
      15.6000      0.494135
      15.7000      0.483843
      15.8000      0.473699
      15.9000      0.463685
      16.0000      0.453799
      16.1000      0.444047
      16.2000      0.434460
      16.3000      0.424996
      16.4000      0.415647
      16.5000      0.406410
      16.6000      0.397293
      16.7000      0.388300
      16.8000      0.379412
      16.9000      0.370629
      17.0000      0.361971
      17.1000      0.353435
      17.2000      0.345000
      17.3000      0.336679
      17.4000      0.328637
      17.5000      0.320857
      17.6000      0.313299
      17.7000      0.306004
      17.8000      0.299112
      17.9000      0.292331
      18.0000      0.285605
      18.1000      0.278982
      18.2000      0.272396
      18.3000      0.265835
      18.4000      0.259281
      18.5000      0.252754
      18.6000      0.246238
      18.7000      0.239709
      18.8000      0.233291
      18.9000      0.226959
      19.0000      0.220742
      19.1000      0.214652
      19.2000      0.208657
      19.3000      0.202805
      19.4000      0.197080
      19.5000      0.191456
      19.6000      0.186004
      19.7000      0.180656
      19.8000      0.175403
      19.9000      0.170311
      20.0000      0.165298
      20.1000      0.160388
      20.2000      0.155586
      20.3000      0.150854
      20.4000      0.146246
      20.5000      0.141714
      20.6000      0.137251
      20.7000      0.132910
      20.8000      0.128626
      20.9000      0.124433
      21.0000      0.120325
      21.1000      0.116289
      21.2000      0.112336
      21.3000      0.108434
      21.4000      0.104637
      21.5000      0.100885
      21.6000     0.0971758
      21.7000     0.0935413
      21.8000     0.0899425
      21.9000     0.0863339
      22.0000     0.0827446
      22.1000     0.0791703
      22.2000     0.0754812
      22.3000     0.0716963
      22.4000     0.0668673
      22.5000     0.0617324
      22.6000     0.0521754
      22.7000     0.0467054
      22.8000     0.0617358
      22.9000     0.0802131
      23.0000      0.101135
      23.1000      0.114105
      23.2000      0.119491
      23.3000      0.119695
      23.4000      0.117279
      23.5000      0.114750
      23.6000      0.112205
      23.7000      0.109413
      23.8000      0.106617
      23.9000      0.103852
      24.0000      0.101098
      24.1000     0.0983417
      24.2000     0.0956119
      24.3000     0.0929430
      24.4000     0.0903009
      24.5000     0.0877061
      24.6000     0.0851495
      24.7000     0.0826590
      24.8000     0.0802065
      24.9000     0.0778129
      25.0000     0.0754620
      25.1000     0.0731763
      25.2000     0.0709308
      25.3000     0.0687469
      25.4000     0.0666053
      25.5000     0.0645336
      25.6000     0.0625051
      25.7000     0.0605570
      25.8000     0.0586404
      25.9000     0.0567928
      26.0000     0.0549701
      26.1000     0.0532176
      26.2000     0.0514838
      26.3000     0.0498262
      26.4000     0.0481793
      26.5000     0.0466099
      26.6000     0.0450501
      26.7000     0.0435625
      26.8000     0.0420933
      26.9000     0.0406802
      27.0000     0.0392904
      27.1000     0.0379400
      27.2000     0.0366180
      27.3000     0.0354085
      27.4000     0.0343365
      27.5000     0.0332549
      27.6000     0.0321340
      27.7000     0.0310220
      27.8000     0.0299495
      27.9000     0.0288835
      28.0000     0.0278710
      28.1000     0.0268740
      28.2000     0.0259158
      28.3000     0.0249853
      28.4000     0.0240787
      28.5000     0.0232119
      28.6000     0.0223543
      28.7000     0.0215513
      28.8000     0.0207534
      28.9000     0.0199965
      29.0000     0.0192547
      29.1000     0.0185380
      29.2000     0.0178492
      29.3000     0.0171705
      29.4000     0.0165321
      29.5000     0.0158979
      29.6000     0.0152989
      29.7000     0.0147121
      29.8000     0.0141449
      29.9000     0.0136029
      30.0000     0.0130659
      30.1000     0.0125659
      30.2000     0.0120692
      30.3000     0.0121364
      30.4000     0.0125236
      30.5000     0.0127237
      30.6000     0.0122390
      30.7000     0.0117576
      30.8000     0.0113041
      30.9000     0.0108611
      31.0000     0.0104304
      31.1000     0.0100234
      31.2000    0.00961915
      31.3000    0.00924094
      31.4000    0.00887029
      31.5000    0.00851066
      31.6000    0.00817137
      31.7000    0.00783443
      31.8000    0.00751949
      31.9000    0.00721166
      32.0000    0.00691186
      32.1000    0.00663116
      32.2000    0.00635243
      32.3000    0.00609064
      32.4000    0.00583728
      32.5000    0.00558867
      32.6000    0.00536562
      32.7000    0.00514428
      32.8000    0.00493329
      32.9000    0.00473225
      33.0000    0.00453261
      33.1000    0.00435653
      33.2000    0.00418480
      33.3000    0.00401739
      33.4000    0.00386095
      33.5000    0.00370563
      33.6000    0.00355830
      33.7000    0.00341715
      33.8000    0.00327696
      33.9000    0.00314752
      34.0000    0.00302030
      34.1000    0.00289610
      34.2000    0.00278102
      34.3000    0.00266670
      34.4000    0.00255724
      34.5000    0.00245382
      34.6000    0.00235107
      34.7000    0.00225432
      34.8000    0.00216068
      34.9000    0.00206766
      35.0000    0.00198259
      35.1000    0.00189884
      35.2000    0.00181644
      35.3000    0.00174117
      35.4000    0.00166640
      35.5000    0.00159407
      35.6000    0.00152701
      35.7000    0.00146039
      35.8000    0.00139695
      35.9000    0.00133732
      36.0000    0.00127810
      36.1000    0.00122249
      36.2000    0.00116960
      36.3000    0.00111706
      36.4000    0.00106833
      36.5000    0.00102149
      36.6000   0.000974968
      36.7000   0.000932289
      36.8000   0.000890909
      36.9000   0.000849815
      37.0000   0.000812439
      37.1000   0.000775967
      37.2000   0.000739745
      37.3000   0.000707017
      37.4000   0.000674944
      37.5000   0.000643094
      37.6000   0.000614426
      37.7000   0.000586285
      37.8000   0.000558341
      37.9000   0.000533221
      38.0000   0.000508593
      38.1000   0.000484135
      38.2000   0.000462108
      38.3000   0.000440595
      38.4000   0.000419233
      38.5000   0.000399906
      38.6000   0.000381164
      38.7000   0.000362555
      38.8000   0.000345584
      38.9000   0.000329297
      39.0000   0.000313125
      39.1000   0.000298211
      39.2000   0.000284093
      39.3000   0.000270075
      39.4000   0.000256958
      39.5000   0.000244751
      39.6000   0.000232632
      39.7000   0.000221084
      39.8000   0.000210558
      39.9000   0.000200108
      40.0000   0.000189934
      40.1000   0.000180882
      40.2000   0.000171895
      40.3000   0.000162974
      40.4000   0.000155159
      40.5000   0.000147451
      40.6000   0.000139798
      40.7000   0.000132890
      40.8000   0.000126293
      40.9000   0.000119744
      41.0000   0.000113631
      41.1000   0.000108002
      41.2000   0.000102415
      41.3000   9.70044e-05
      41.4000   9.22204e-05
      41.5000   8.74708e-05
      41.6000   8.27561e-05
      41.7000   7.86200e-05
      41.8000   7.45909e-05
      41.9000   7.05914e-05
      42.0000   6.69131e-05
      42.1000   6.35069e-05
      42.2000   6.01255e-05
      42.3000   5.68513e-05
      42.4000   5.39788e-05
      42.5000   5.11274e-05
      42.6000   4.82970e-05
      42.7000   4.57978e-05
      42.8000   4.33999e-05
      42.9000   4.10193e-05
      43.0000   3.87824e-05
      43.1000   3.67725e-05
      43.2000   3.47775e-05
      43.3000   3.27974e-05
      43.4000     0.0329610
      43.5000     0.0741589
      43.6000      0.129218
      43.7000      0.180630
      43.8000      0.205195
      43.9000      0.209188
      44.0000      0.205442
      44.1000      0.194340
      44.2000      0.191346
      44.3000      0.189062
      44.4000      0.186804
      44.5000      0.184579
      44.6000      0.182360
      44.7000      0.180147
      44.8000      0.177984
      44.9000      0.175832
      45.0000      0.173686
      45.1000      0.171559
      45.2000      0.169472
      45.3000      0.167390
      45.4000      0.165313
      45.5000      0.163276
      45.6000      0.161259
      45.7000      0.159247
      45.8000      0.157242
      45.9000      0.155289
      46.0000      0.153340
      46.1000      0.151397
      46.2000      0.149544
      46.3000      0.147841
      46.4000      0.146143
      46.5000      0.144450
      46.6000      0.142812
      46.7000      0.141203
      46.8000      0.139599
      46.9000      0.137999
      47.0000      0.136475
      47.1000      0.134960
      47.2000      0.133449
      47.3000      0.131949
      47.4000      0.130489
      47.5000      0.129032
      47.6000      0.127579
      47.7000      0.126143
      47.8000      0.124732
      47.9000      0.123325
      48.0000      0.121921
      48.1000      0.120540
      48.2000      0.119178
      48.3000      0.117819
      48.4000      0.116464
      48.5000      0.115135
      48.6000      0.113818
      48.7000      0.112506
      48.8000      0.111196
      48.9000      0.109918
      49.0000      0.108649
      49.1000      0.107383
      49.2000      0.106121
      49.3000      0.104893
      49.4000      0.103670
      49.5000      0.102451
      49.6000      0.101234
      49.7000      0.100052
      49.8000     0.0988743
      49.9000     0.0976991
      50.0000     0.0965284
      50.1000     0.0953949
      50.2000     0.0943225
      50.3000     0.0932591
      50.4000     0.0922063
      50.5000     0.0911629
      50.6000     0.0901299
      50.7000     0.0891082
      50.8000     0.0880947
      50.9000     0.0870927
      51.0000     0.0861091
      51.1000     0.0851382
      51.2000     0.0841762
      51.3000     0.0832236
      51.4000     0.0822818
      51.5000     0.0813472
      51.6000     0.0804208
      51.7000     0.0795031
      51.8000     0.0785867
      51.9000     0.0776782
      52.0000     0.0767783
      52.1000     0.0758872
      52.2000     0.0750049
      52.3000     0.0741300
      52.4000     0.0732640
      52.5000     0.0724065
      52.6000     0.0715562
      52.7000     0.0707126
      52.8000     0.0698765
      52.9000     0.0690486
      53.0000     0.0682291
      53.1000     0.0674174
      53.2000     0.0666152
      53.3000     0.0658212
      53.4000     0.0650344
      53.5000     0.0642547
      53.6000     0.0634820
      53.7000     0.0627166
      53.8000     0.0619604
      53.9000     0.0612115
      54.0000     0.0604708
      54.1000     0.0597386
      54.2000     0.0590123
      54.3000     0.0582931
      54.4000     0.0575813
      54.5000     0.0568764
      54.6000     0.0561798
      54.7000     0.0554904
      54.8000     0.0548087
      54.9000     0.0541340
      55.0000     0.0534662
      55.1000     0.0528043
      55.2000     0.0521251
      55.3000     0.0514316
      55.4000     0.0507452
      55.5000     0.0500665
      55.6000     0.0493953
      55.7000     0.0487321
      55.8000     0.0480758
      55.9000     0.0474262
      56.0000     0.0467910
      56.1000     0.0461520
      56.2000     0.0455102
      56.3000     0.0448758
      56.4000     0.0442488
      56.5000     0.0436285
      56.6000     0.0430152
      56.7000     0.0424098
      56.8000     0.0418112
      56.9000     0.0412215
      57.0000     0.0406382
      57.1000     0.0400608
      57.2000     0.0394892
      57.3000     0.0389244
      57.4000     0.0383659
      57.5000     0.0378147
      57.6000     0.0372697
      57.7000     0.0367313
      57.8000     0.0362004
      57.9000     0.0356767
      58.0000     0.0351590
      58.1000     0.0346466
      58.2000     0.0341410
      58.3000     0.0336417
      58.4000     0.0331485
      58.5000     0.0326613
      58.6000     0.0321808
      58.7000     0.0317060
      58.8000     0.0312374
      58.9000     0.0307743
      59.0000     0.0303169
      59.1000     0.0298650
      59.2000     0.0294192
      59.3000     0.0289789
      59.4000     0.0285447
      59.5000     0.0281159
      59.6000     0.0276928
      59.7000     0.0272745
      59.8000     0.0268618
      59.9000     0.0264540
      60.0000     0.0260521
      60.1000     0.0256550
      60.2000     0.0252636
      60.3000     0.0248775
      60.4000     0.0244965
      60.5000     0.0241209
      60.6000     0.0237496
      60.7000     0.0233824
      60.8000     0.0230198
      60.9000     0.0226621
      61.0000     0.0223092
      61.1000     0.0219614
      61.2000     0.0216180
      61.3000     0.0212798
      61.4000     0.0209458
      61.5000     0.0206165
      61.6000     0.0202910
      61.7000     0.0199698
      61.8000     0.0196539
      61.9000     0.0193431
      62.0000     0.0190367
      62.1000     0.0187344
      62.2000     0.0184367
      62.3000     0.0181429
      62.4000     0.0178535
      62.5000     0.0175677
      62.6000     0.0172858
      62.7000     0.0170074
      62.8000     0.0167344
      62.9000     0.0164652
      63.0000     0.0161998
      63.1000     0.0159385
      63.2000     0.0156805
      63.3000     0.0154261
      63.4000     0.0151748
      63.5000     0.0149277
      63.6000     0.0146839
      63.7000     0.0144435
      63.8000     0.0142068
      63.9000     0.0139737
      64.0000     0.0137442
      64.1000     0.0135177
      64.2000     0.0132951
      64.3000     0.0130755
      64.4000     0.0128589
      64.5000     0.0126453
      64.6000     0.0124346
      64.7000     0.0122273
      64.8000     0.0120228
      64.9000     0.0118214
      65.0000     0.0116230
      65.1000     0.0114277
      65.2000     0.0112356
      65.3000     0.0110459
      65.4000     0.0108593
      65.5000     0.0106753
      65.6000     0.0104938
      65.7000     0.0103150
      65.8000     0.0101391
      65.9000    0.00996627
      66.0000    0.00979592
      66.1000    0.00962838
      66.2000    0.00946343
      66.3000    0.00930088
      66.4000    0.00914089
      66.5000    0.00898312
      66.6000    0.00882776
      66.7000    0.00867486
      66.8000    0.00852431
      66.9000    0.00837929
      67.0000    0.00823927
      67.1000    0.00810200
      67.2000    0.00796697
      67.3000    0.00783381
      67.4000    0.00770274
      67.5000    0.00757350
      67.6000    0.00744612
      67.7000    0.00732067
      67.8000    0.00719673
      67.9000    0.00707440
      68.0000    0.00695470
      68.1000    0.00683754
      68.2000    0.00672216
      68.3000    0.00660846
      68.4000    0.00649662
      68.5000    0.00638662
      68.6000    0.00627809
      68.7000    0.00617124
      68.8000    0.00606599
      68.9000    0.00596384
      69.0000    0.00587182
      69.1000    0.00578893
      69.2000    0.00570860
      69.3000    0.00563055
      69.4000    0.00555549
      69.5000    0.00547885
      69.6000    0.00539973
      69.7000    0.00532372
      69.8000    0.00525155
      69.9000    0.00518040
      70.0000    0.00510993
      70.1000    0.00503896
      70.2000    0.00497148
      70.3000    0.00490751
      70.4000    0.00484376
      70.5000    0.00478150
      70.6000    0.00472071
      70.7000    0.00466077
      70.8000    0.00460139
      70.9000    0.00454061
      71.0000    0.00447860
      71.1000    0.00441941
      71.2000    0.00436317
      71.3000    0.00430352
      71.4000    0.00423952
      71.5000    0.00418058
      71.6000    0.00412897
      71.7000    0.00407689
      71.8000    0.00402316
      71.9000    0.00397129
      72.0000    0.00392332
