Filter Al-med
observation_date 22-Sept-2020 22:45:45
wavelength effective area 
      1.00000   2.66384e-10
      1.10000   7.49523e-10
      1.20000   1.91513e-09
      1.30000   4.48761e-09
      1.40000   9.94635e-09
      1.50000   2.06561e-08
      1.60000   4.05597e-08
      1.70000   7.60794e-08
      1.80000   1.36312e-07
      1.90000   2.34791e-07
      2.00000   3.89503e-07
      2.10000   6.24944e-07
      2.20000   9.74175e-07
      2.30000   1.47329e-06
      2.40000   2.16530e-06
      2.50000   3.08206e-06
      2.60000   4.35717e-06
      2.70000   5.98526e-06
      2.80000   8.02236e-06
      2.90000   1.05760e-05
      3.00000   1.36496e-05
      3.10000   1.72885e-05
      3.20000   2.15273e-05
      3.30000   2.63695e-05
      3.40000   3.17710e-05
      3.50000   3.76811e-05
      3.60000   4.41682e-05
      3.70000   5.09372e-05
      3.80000   5.80826e-05
      3.90000   6.54328e-05
      4.00000   7.27918e-05
      4.10000   8.00676e-05
      4.20000   8.71641e-05
      4.30000   9.39643e-05
      4.40000   0.000100337
      4.50000   0.000106135
      4.60000   0.000111174
      4.70000   0.000115621
      4.80000   0.000119220
      4.90000   0.000120690
      5.00000   0.000124300
      5.10000   0.000125599
      5.20000   0.000126175
      5.30000   0.000125052
      5.40000   0.000122733
      5.50000   0.000119904
      5.60000   0.000112858
      5.70000   0.000111191
      5.80000   9.77903e-05
      5.90000   0.000111582
      6.00000   0.000111454
      6.10000   0.000105198
      6.20000   9.55885e-05
      6.30000   8.25842e-05
      6.40000   6.78657e-05
      6.50000   5.31617e-05
      6.60000   3.94655e-05
      6.70000   2.87512e-05
      6.80000   2.03465e-05
      6.90000   1.86995e-05
      7.00000   1.41879e-05
      7.10000   1.04030e-05
      7.20000   7.48467e-06
      7.30000   5.33705e-06
      7.40000   3.77873e-06
      7.50000   2.63213e-06
      7.60000   1.80119e-06
      7.70000   1.22825e-06
      7.80000   8.19322e-07
      7.90000   5.41332e-07
      8.00000      0.298780
      8.10000      0.315078
      8.20000      0.308048
      8.30000      0.299548
      8.40000      0.290491
      8.50000      0.281157
      8.60000      0.271505
      8.70000      0.261689
      8.80000      0.251683
      8.90000      0.241592
      9.00000      0.231470
      9.10000      0.221362
      9.20000      0.211311
      9.30000      0.201396
      9.40000      0.191614
      9.50000      0.181990
      9.60000      0.172606
      9.70000      0.163434
      9.80000      0.154459
      9.90000      0.145739
      10.0000      0.137276
      10.1000      0.129069
      10.2000      0.121133
      10.3000      0.113524
      10.4000      0.106247
      10.5000     0.0992767
      10.6000     0.0926165
      10.7000     0.0862660
      10.8000     0.0802373
      10.9000     0.0745410
      11.0000     0.0691414
      11.1000     0.0640344
      11.2000     0.0592126
      11.3000     0.0546707
      11.4000     0.0503993
      11.5000     0.0463888
      11.6000     0.0426309
      11.7000     0.0391297
      11.8000     0.0358654
      11.9000     0.0328507
      12.0000     0.0300290
      12.1000     0.0275238
      12.2000     0.0256546
      12.3000     0.0236042
      12.4000     0.0215128
      12.5000     0.0195633
      12.6000     0.0177579
      12.7000     0.0160917
      12.8000     0.0145586
      12.9000     0.0131518
      13.0000     0.0118633
      13.1000     0.0106848
      13.2000    0.00960891
      13.3000    0.00862814
      13.4000    0.00773580
      13.5000    0.00692732
      13.6000    0.00620112
      13.7000    0.00554311
      13.8000    0.00494757
      13.9000    0.00440946
      14.0000    0.00392383
      14.1000    0.00348600
      14.2000    0.00309180
      14.3000    0.00273742
      14.4000    0.00241934
      14.5000    0.00213623
      14.6000    0.00188584
      14.7000    0.00166181
      14.8000    0.00146159
      14.9000    0.00128288
      15.0000    0.00112362
      15.1000   0.000981939
      15.2000   0.000859053
      15.3000   0.000750416
      15.4000   0.000654000
      15.5000   0.000568579
      15.6000   0.000493063
      15.7000   0.000427510
      15.8000   0.000370971
      15.9000   0.000321106
      16.0000   0.000277217
      16.1000   0.000238681
      16.2000   0.000206059
      16.3000   0.000177700
      16.4000   0.000152741
      16.5000   0.000130834
      16.6000   0.000112110
      16.7000   9.61853e-05
      16.8000   8.21890e-05
      16.9000   6.99329e-05
      17.0000   5.95656e-05
      17.1000   5.07932e-05
      17.2000   4.31009e-05
      17.3000   3.63943e-05
      17.4000   3.09470e-05
      17.5000   2.63015e-05
      17.6000   2.22732e-05
      17.7000   1.88725e-05
      17.8000   1.61322e-05
      17.9000   1.37144e-05
      18.0000   1.15842e-05
      18.1000   9.85082e-06
      18.2000   8.31940e-06
      18.3000   6.96051e-06
      18.4000   5.82811e-06
      18.5000   4.85664e-06
      18.6000   3.99838e-06
      18.7000   3.28660e-06
      18.8000   2.70096e-06
      18.9000   2.19461e-06
      19.0000   1.79331e-06
      19.1000   1.46595e-06
      19.2000   1.18422e-06
      19.3000   9.67393e-07
      19.4000   7.88253e-07
      19.5000   6.34350e-07
      19.6000   5.20159e-07
      19.7000   4.22575e-07
      19.8000   3.39707e-07
      19.9000   2.78831e-07
      20.0000   2.25166e-07
      20.1000   1.81886e-07
      20.2000   1.47886e-07
      20.3000   1.18139e-07
      20.4000   9.58540e-08
      20.5000   7.70058e-08
      20.6000   6.12189e-08
      20.7000   4.95618e-08
      20.8000   3.92443e-08
      20.9000   3.14689e-08
      21.0000   2.50673e-08
      21.1000   1.96974e-08
      21.2000   1.58202e-08
      21.3000   1.23702e-08
      21.4000   9.85755e-09
      21.5000   7.75206e-09
      21.6000   6.05855e-09
      21.7000   4.80043e-09
      21.8000   3.68800e-09
      21.9000   2.93897e-09
      22.0000   2.26768e-09
      22.1000   1.77552e-09
      22.2000   1.37438e-09
      22.3000   1.05230e-09
      22.4000   8.07762e-10
      22.5000   5.88586e-10
      22.6000   4.22372e-10
      22.7000   2.85015e-10
      22.8000   2.73525e-10
      22.9000   2.70255e-10
      23.0000   2.74247e-10
      23.1000   2.54905e-10
      23.2000   2.14207e-10
      23.3000   1.74454e-10
      23.4000   1.35267e-10
      23.5000   1.07218e-10
      23.6000   8.19543e-11
      23.7000   6.50601e-11
      23.8000   4.91019e-11
      23.9000   3.89780e-11
      24.0000   2.93872e-11
      24.1000   2.31353e-11
      24.2000   1.74073e-11
      24.3000   1.36138e-11
      24.4000   1.02363e-11
      24.5000   7.96325e-12
      24.6000   5.98445e-12
      24.7000   4.63408e-12
      24.8000   3.47938e-12
      24.9000   2.68981e-12
      25.0000   2.01904e-12
      25.1000   1.55634e-12
      25.2000   1.16442e-12
      25.3000   8.97047e-13
      25.4000   6.68826e-13
      25.5000   5.14730e-13
      25.6000   3.81406e-13
      25.7000   2.93645e-13
      25.8000   2.16003e-13
      25.9000   1.66503e-13
      26.0000   1.21377e-13
      26.1000   9.37808e-14
      26.2000   6.76552e-14
      26.3000   5.24489e-14
      26.4000   3.73910e-14
      26.5000   2.91109e-14
      26.6000   2.08742e-14
      26.7000   1.60263e-14
      26.8000   1.15998e-14
      26.9000   8.74886e-15
      27.0000   6.39887e-15
      27.1000   4.73170e-15
      27.2000   3.49916e-15
      27.3000   2.53591e-15
      27.4000   1.90641e-15
      27.5000   1.35704e-15
      27.6000   1.02997e-15
      27.7000   7.13601e-16
      27.8000   5.48090e-16
      27.9000   3.83445e-16
      28.0000   2.88048e-16
      28.1000   2.06460e-16
      28.2000   1.50140e-16
      28.3000   1.10698e-16
      28.4000   7.82656e-17
      28.5000   5.89682e-17
      28.6000   4.04755e-17
      28.7000   3.14114e-17
      28.8000   2.23957e-17
      28.9000   1.68815e-17
      29.0000   1.23804e-17
      29.1000   8.95218e-18
      29.2000   6.73370e-18
      29.3000   4.68240e-18
      29.4000   3.60293e-18
      29.5000   2.52935e-18
      29.6000   1.89613e-18
      29.7000   1.38068e-18
      29.8000   9.81393e-19
      29.9000   7.37239e-19
      30.0000   4.99494e-19
      30.1000   3.85418e-19
      30.2000   2.71967e-19
      30.3000   1.99211e-19
      30.4000   1.49792e-19
      30.5000   1.05657e-19
      30.6000   8.03798e-20
      30.7000   5.52424e-20
      30.8000   4.07438e-20
      30.9000   2.94789e-20
      31.0000   2.01696e-20
      31.1000   1.51953e-20
      31.2000   1.02486e-20
      31.3000   7.59743e-21
      31.4000   5.44588e-21
      31.5000   3.69505e-21
      31.6000   2.77342e-21
      31.7000   1.85697e-21
      31.8000   1.36285e-21
      31.9000   9.76308e-22
      32.0000   6.48945e-22
      32.1000   4.88454e-22
      32.2000   3.28867e-22
      32.3000   2.34699e-22
      32.4000   1.69525e-22
      32.5000   1.08937e-22
      32.6000   8.27661e-23
      32.7000   5.67407e-23
      32.8000   3.87032e-23
      32.9000   2.84144e-23
      33.0000   1.81838e-23
      33.1000   1.34473e-23
      33.2000   9.47281e-24
      33.3000   6.08731e-24
      33.4000   4.56801e-24
      33.5000   3.05707e-24
      33.6000   2.08230e-24
      33.7000   1.51481e-24
      33.8000   9.50382e-25
      33.9000   6.98045e-25
      34.0000   4.89783e-25
      34.1000   3.04528e-25
      34.2000   2.28043e-25
      34.3000   1.51947e-25
      34.4000   9.76737e-26
      34.5000   7.13296e-26
      34.6000   4.51218e-26
      34.7000   3.04694e-26
      34.8000   2.12024e-26
      34.9000   1.19828e-26
      35.0000   8.56799e-27
      35.1000   5.76570e-27
      35.2000   3.18795e-27
      35.3000   2.35664e-27
      35.4000   1.52959e-27
      35.5000   8.73761e-28
      35.6000   6.34392e-28
      35.7000   3.96255e-28
      35.8000   2.34438e-28
      35.9000   1.67235e-28
      36.0000   1.00379e-28
      36.1000   6.15948e-29
      36.2000   4.32063e-29
      36.3000   2.49127e-29
      36.4000   1.58496e-29
      36.5000   1.09477e-29
      36.6000   6.07157e-30
      36.7000   3.99398e-30
      36.8000   2.72244e-30
      36.9000   1.45760e-30
      37.0000   9.86024e-31
      37.1000   6.65100e-31
      37.2000   3.45843e-31
      37.3000   2.38489e-31
      37.4000   1.59711e-31
      37.5000   8.13504e-32
      37.6000   5.65025e-32
      37.7000   3.77105e-32
      37.8000   1.90180e-32
      37.9000   1.31099e-32
      38.0000   8.75469e-33
      38.1000   4.42238e-33
      38.2000   2.97691e-33
      38.3000   1.99690e-33
      38.4000   1.02206e-33
      38.5000   6.60906e-34
      38.6000   4.47017e-34
      38.7000   2.34260e-34
      38.8000   1.43350e-34
      38.9000   9.80869e-35
      39.0000   5.30622e-35
      39.1000   3.03428e-35
      39.2000   2.10610e-35
      39.3000   1.18281e-35
      39.4000   6.25973e-36
      39.5000   4.41643e-36
      39.6000   2.58302e-36
      39.7000   1.25691e-36
      39.8000   9.02690e-37
      39.9000   5.50342e-37
      40.0000   2.45314e-37
      40.1000   1.79476e-37
      40.2000   1.13988e-37
      40.3000   4.88562e-38
      40.4000   3.46439e-38
      40.5000   2.28802e-38
      40.6000   1.11787e-38
      40.7000   6.48006e-39
      40.8000   4.43879e-39
      40.9000   2.40858e-39
      41.0000   1.17216e-39
      41.1000   8.30447e-40
      41.2000   4.90596e-40
      41.3000   2.04777e-40
      41.4000   1.49624e-40
      41.5000   9.47558e-41
      41.6000   4.01836e-41
      41.7000   2.59296e-41
      41.8000   1.73901e-41
      41.9000   8.89825e-42
      42.0000   4.32020e-42
      42.1000   3.03802e-42
      42.2000   1.76423e-42
      42.3000   6.86636e-43
      42.4000   5.04467e-43
      42.5000   3.22299e-43
      42.6000   1.40130e-43
      42.7000   7.98740e-44
      42.8000   5.04467e-44
      42.9000   2.94273e-44
      43.0000   1.26117e-44
      43.1000   9.80909e-45
      43.2000   7.00649e-45
      43.3000       0.00000
      43.4000   2.80260e-45
      43.5000   2.80260e-45
      43.6000   2.80260e-45
      43.7000       0.00000
      43.8000       0.00000
      43.9000       0.00000
      44.0000       0.00000
      44.1000       0.00000
      44.2000       0.00000
      44.3000       0.00000
      44.4000       0.00000
      44.5000       0.00000
      44.6000       0.00000
      44.7000       0.00000
      44.8000       0.00000
      44.9000       0.00000
      45.0000       0.00000
      45.1000       0.00000
      45.2000       0.00000
      45.3000       0.00000
      45.4000       0.00000
      45.5000       0.00000
      45.6000       0.00000
      45.7000       0.00000
      45.8000       0.00000
      45.9000       0.00000
      46.0000       0.00000
      46.1000       0.00000
      46.2000       0.00000
      46.3000       0.00000
      46.4000       0.00000
      46.5000       0.00000
      46.6000       0.00000
      46.7000       0.00000
      46.8000       0.00000
      46.9000       0.00000
      47.0000       0.00000
      47.1000       0.00000
      47.2000       0.00000
      47.3000       0.00000
      47.4000       0.00000
      47.5000       0.00000
      47.6000       0.00000
      47.7000       0.00000
      47.8000       0.00000
      47.9000       0.00000
      48.0000       0.00000
      48.1000       0.00000
      48.2000       0.00000
      48.3000       0.00000
      48.4000       0.00000
      48.5000       0.00000
      48.6000       0.00000
      48.7000       0.00000
      48.8000       0.00000
      48.9000       0.00000
      49.0000       0.00000
      49.1000       0.00000
      49.2000       0.00000
      49.3000       0.00000
      49.4000       0.00000
      49.5000       0.00000
      49.6000       0.00000
      49.7000       0.00000
      49.8000       0.00000
      49.9000       0.00000
      50.0000       0.00000
      50.1000       0.00000
      50.2000       0.00000
      50.3000       0.00000
      50.4000       0.00000
      50.5000       0.00000
      50.6000       0.00000
      50.7000       0.00000
      50.8000       0.00000
      50.9000       0.00000
      51.0000       0.00000
      51.1000       0.00000
      51.2000       0.00000
      51.3000       0.00000
      51.4000       0.00000
      51.5000       0.00000
      51.6000       0.00000
      51.7000       0.00000
      51.8000       0.00000
      51.9000       0.00000
      52.0000       0.00000
      52.1000       0.00000
      52.2000       0.00000
      52.3000       0.00000
      52.4000       0.00000
      52.5000       0.00000
      52.6000       0.00000
      52.7000       0.00000
      52.8000       0.00000
      52.9000       0.00000
      53.0000       0.00000
      53.1000       0.00000
      53.2000       0.00000
      53.3000       0.00000
      53.4000       0.00000
      53.5000       0.00000
      53.6000       0.00000
      53.7000       0.00000
      53.8000       0.00000
      53.9000       0.00000
      54.0000       0.00000
      54.1000       0.00000
      54.2000       0.00000
      54.3000       0.00000
      54.4000       0.00000
      54.5000       0.00000
      54.6000       0.00000
      54.7000       0.00000
      54.8000       0.00000
      54.9000       0.00000
      55.0000       0.00000
      55.1000       0.00000
      55.2000       0.00000
      55.3000       0.00000
      55.4000       0.00000
      55.5000       0.00000
      55.6000       0.00000
      55.7000       0.00000
      55.8000       0.00000
      55.9000       0.00000
      56.0000       0.00000
      56.1000       0.00000
      56.2000       0.00000
      56.3000       0.00000
      56.4000       0.00000
      56.5000       0.00000
      56.6000       0.00000
      56.7000       0.00000
      56.8000       0.00000
      56.9000       0.00000
      57.0000       0.00000
      57.1000       0.00000
      57.2000       0.00000
      57.3000       0.00000
      57.4000       0.00000
      57.5000       0.00000
      57.6000       0.00000
      57.7000       0.00000
      57.8000       0.00000
      57.9000       0.00000
      58.0000       0.00000
      58.1000       0.00000
      58.2000       0.00000
      58.3000       0.00000
      58.4000       0.00000
      58.5000       0.00000
      58.6000       0.00000
      58.7000       0.00000
      58.8000       0.00000
      58.9000       0.00000
      59.0000       0.00000
      59.1000       0.00000
      59.2000       0.00000
      59.3000       0.00000
      59.4000       0.00000
      59.5000       0.00000
      59.6000       0.00000
      59.7000       0.00000
      59.8000       0.00000
      59.9000       0.00000
      60.0000       0.00000
      60.1000       0.00000
      60.2000       0.00000
      60.3000       0.00000
      60.4000       0.00000
      60.5000       0.00000
      60.6000       0.00000
      60.7000       0.00000
      60.8000       0.00000
      60.9000       0.00000
      61.0000       0.00000
      61.1000       0.00000
      61.2000       0.00000
      61.3000       0.00000
      61.4000       0.00000
      61.5000       0.00000
      61.6000       0.00000
      61.7000       0.00000
      61.8000       0.00000
      61.9000       0.00000
      62.0000       0.00000
      62.1000       0.00000
      62.2000       0.00000
      62.3000       0.00000
      62.4000       0.00000
      62.5000       0.00000
      62.6000       0.00000
      62.7000       0.00000
      62.8000       0.00000
      62.9000       0.00000
      63.0000       0.00000
      63.1000       0.00000
      63.2000       0.00000
      63.3000       0.00000
      63.4000       0.00000
      63.5000       0.00000
      63.6000       0.00000
      63.7000       0.00000
      63.8000       0.00000
      63.9000       0.00000
      64.0000       0.00000
      64.1000       0.00000
      64.2000       0.00000
      64.3000       0.00000
      64.4000       0.00000
      64.5000       0.00000
      64.6000       0.00000
      64.7000       0.00000
      64.8000       0.00000
      64.9000       0.00000
      65.0000       0.00000
      65.1000       0.00000
      65.2000       0.00000
      65.3000       0.00000
      65.4000       0.00000
      65.5000       0.00000
      65.6000       0.00000
      65.7000       0.00000
      65.8000       0.00000
      65.9000       0.00000
      66.0000       0.00000
      66.1000       0.00000
      66.2000       0.00000
      66.3000       0.00000
      66.4000       0.00000
      66.5000       0.00000
      66.6000       0.00000
      66.7000       0.00000
      66.8000       0.00000
      66.9000       0.00000
      67.0000       0.00000
      67.1000       0.00000
      67.2000       0.00000
      67.3000       0.00000
      67.4000       0.00000
      67.5000       0.00000
      67.6000       0.00000
      67.7000       0.00000
      67.8000       0.00000
      67.9000       0.00000
      68.0000       0.00000
      68.1000       0.00000
      68.2000       0.00000
      68.3000       0.00000
      68.4000       0.00000
      68.5000       0.00000
      68.6000       0.00000
      68.7000       0.00000
      68.8000       0.00000
      68.9000       0.00000
      69.0000       0.00000
      69.1000       0.00000
      69.2000       0.00000
      69.3000       0.00000
      69.4000       0.00000
      69.5000       0.00000
      69.6000       0.00000
      69.7000       0.00000
      69.8000       0.00000
      69.9000       0.00000
      70.0000       0.00000
      70.1000       0.00000
      70.2000       0.00000
      70.3000       0.00000
      70.4000       0.00000
      70.5000       0.00000
      70.6000       0.00000
      70.7000       0.00000
      70.8000       0.00000
      70.9000       0.00000
      71.0000       0.00000
      71.1000       0.00000
      71.2000       0.00000
      71.3000       0.00000
      71.4000       0.00000
      71.5000       0.00000
      71.6000       0.00000
      71.7000       0.00000
      71.8000       0.00000
      71.9000       0.00000
      72.0000       0.00000
