Filter Al-med
observation_date 22-Sept-2010 22:40:45
wavelength effective area 
      1.00000   2.66386e-10
      1.10000   7.49530e-10
      1.20000   1.91515e-09
      1.30000   4.48767e-09
      1.40000   9.94653e-09
      1.50000   2.06566e-08
      1.60000   4.05608e-08
      1.70000   7.60820e-08
      1.80000   1.36317e-07
      1.90000   2.34802e-07
      2.00000   3.89524e-07
      2.10000   6.24984e-07
      2.20000   9.74247e-07
      2.30000   1.47341e-06
      2.40000   2.16551e-06
      2.50000   3.08240e-06
      2.60000   4.35771e-06
      2.70000   5.98609e-06
      2.80000   8.02360e-06
      2.90000   1.05778e-05
      3.00000   1.36522e-05
      3.10000   1.72921e-05
      3.20000   2.15323e-05
      3.30000   2.63762e-05
      3.40000   3.17798e-05
      3.50000   3.76926e-05
      3.60000   4.41829e-05
      3.70000   5.09555e-05
      3.80000   5.81053e-05
      3.90000   6.54605e-05
      4.00000   7.28250e-05
      4.10000   8.01068e-05
      4.20000   8.72100e-05
      4.30000   9.40174e-05
      4.40000   0.000100398
      4.50000   0.000106203
      4.60000   0.000111251
      4.70000   0.000115706
      4.80000   0.000119313
      4.90000   0.000120790
      5.00000   0.000124409
      5.10000   0.000125716
      5.20000   0.000126299
      5.30000   0.000125183
      5.40000   0.000122869
      5.50000   0.000120044
      5.60000   0.000112996
      5.70000   0.000111334
      5.80000   9.79232e-05
      5.90000   0.000111741
      6.00000   0.000111621
      6.10000   0.000105364
      6.20000   9.57461e-05
      6.30000   8.27268e-05
      6.40000   6.79883e-05
      6.50000   5.32622e-05
      6.60000   3.95434e-05
      6.70000   2.88105e-05
      6.80000   2.03903e-05
      6.90000   1.87414e-05
      7.00000   1.42211e-05
      7.10000   1.04284e-05
      7.20000   7.50367e-06
      7.30000   5.35115e-06
      7.40000   3.78911e-06
      7.50000   2.63964e-06
      7.60000   1.80653e-06
      7.70000   1.23203e-06
      7.80000   8.21937e-07
      7.90000   5.43124e-07
      8.00000      0.299805
      8.10000      0.316198
      8.20000      0.309183
      8.30000      0.300690
      8.40000      0.291637
      8.50000      0.282304
      8.60000      0.272650
      8.70000      0.262829
      8.80000      0.252816
      8.90000      0.242714
      9.00000      0.232580
      9.10000      0.222457
      9.20000      0.212389
      9.30000      0.202456
      9.40000      0.192653
      9.50000      0.183007
      9.60000      0.173600
      9.70000      0.164402
      9.80000      0.155401
      9.90000      0.146654
      10.0000      0.138162
      10.1000      0.129926
      10.2000      0.121960
      10.3000      0.114320
      10.4000      0.107012
      10.5000      0.100011
      10.6000     0.0933197
      10.7000     0.0869384
      10.8000     0.0808791
      10.9000     0.0751527
      11.0000     0.0697234
      11.1000     0.0645872
      11.2000     0.0597367
      11.3000     0.0551667
      11.4000     0.0508679
      11.5000     0.0468307
      11.6000     0.0430470
      11.7000     0.0395209
      11.8000     0.0362325
      11.9000     0.0331949
      12.0000     0.0303510
      12.1000     0.0278256
      12.2000     0.0259423
      12.3000     0.0238750
      12.4000     0.0217651
      12.5000     0.0197978
      12.6000     0.0179756
      12.7000     0.0162933
      12.8000     0.0147450
      12.9000     0.0133238
      13.0000     0.0120218
      13.1000     0.0108306
      13.2000    0.00974275
      13.3000    0.00875083
      13.4000    0.00784807
      13.5000    0.00702990
      13.6000    0.00629479
      13.7000    0.00562850
      13.8000    0.00502529
      13.9000    0.00448009
      14.0000    0.00398790
      14.1000    0.00354403
      14.2000    0.00314425
      14.3000    0.00278474
      14.4000    0.00246196
      14.5000    0.00217457
      14.6000    0.00192032
      14.7000    0.00169276
      14.8000    0.00148932
      14.9000    0.00130767
      15.0000    0.00114573
      15.1000    0.00100162
      15.2000   0.000876579
      15.3000   0.000766001
      15.4000   0.000667827
      15.5000   0.000580814
      15.6000   0.000503861
      15.7000   0.000437037
      15.8000   0.000379382
      15.9000   0.000328512
      16.0000   0.000283721
      16.1000   0.000244376
      16.2000   0.000211058
      16.3000   0.000182083
      16.4000   0.000156571
      16.5000   0.000134169
      16.6000   0.000115014
      16.7000   9.87180e-05
      16.8000   8.43882e-05
      16.9000   7.18344e-05
      17.0000   6.12111e-05
      17.1000   5.22188e-05
      17.2000   4.43297e-05
      17.3000   3.74483e-05
      17.4000   3.18570e-05
      17.5000   2.70864e-05
      17.6000   2.29477e-05
      17.7000   1.94521e-05
      17.8000   1.66344e-05
      17.9000   1.41471e-05
      18.0000   1.19546e-05
      18.1000   1.01701e-05
      18.2000   8.59266e-06
      18.3000   7.19226e-06
      18.4000   6.02482e-06
      18.5000   5.02280e-06
      18.6000   4.13709e-06
      18.7000   3.40221e-06
      18.8000   2.79730e-06
      18.9000   2.27398e-06
      19.0000   1.85906e-06
      19.1000   1.52044e-06
      19.2000   1.22883e-06
      19.3000   1.00433e-06
      19.4000   8.18757e-07
      19.5000   6.59224e-07
      19.6000   5.40825e-07
      19.7000   4.39584e-07
      19.8000   3.53558e-07
      19.9000   2.90346e-07
      20.0000   2.34585e-07
      20.1000   1.89591e-07
      20.2000   1.54230e-07
      20.3000   1.23272e-07
      20.4000   1.00071e-07
      20.5000   8.04357e-08
      20.6000   6.39796e-08
      20.7000   5.18245e-08
      20.8000   4.10581e-08
      20.9000   3.29412e-08
      21.0000   2.62545e-08
      21.1000   2.06416e-08
      21.2000   1.65878e-08
      21.3000   1.29776e-08
      21.4000   1.03474e-08
      21.5000   8.14190e-09
      21.6000   6.36686e-09
      21.7000   5.04764e-09
      21.8000   3.88017e-09
      21.9000   3.09392e-09
      22.0000   2.38864e-09
      22.1000   1.87135e-09
      22.2000   1.44943e-09
      22.3000   1.11043e-09
      22.4000   8.52900e-10
      22.5000   6.21856e-10
      22.6000   4.46521e-10
      22.7000   3.00375e-10
      22.8000   2.86269e-10
      22.9000   2.82069e-10
      23.0000   2.85944e-10
      23.1000   2.65863e-10
      23.2000   2.23519e-10
      23.3000   1.82122e-10
      23.4000   1.41279e-10
      23.5000   1.12036e-10
      23.6000   8.56778e-11
      23.7000   6.80485e-11
      23.8000   5.13820e-11
      23.9000   4.08077e-11
      24.0000   3.07817e-11
      24.1000   2.42449e-11
      24.2000   1.82512e-11
      24.3000   1.42808e-11
      24.4000   1.07432e-11
      24.5000   8.36184e-12
      24.6000   6.28718e-12
      24.7000   4.87097e-12
      24.8000   3.65912e-12
      24.9000   2.83022e-12
      25.0000   2.12554e-12
      25.1000   1.63928e-12
      25.2000   1.22713e-12
      25.3000   9.45851e-13
      25.4000   7.05589e-13
      25.5000   5.43311e-13
      25.6000   4.02798e-13
      25.7000   3.10280e-13
      25.8000   2.28361e-13
      25.9000   1.76123e-13
      26.0000   1.28460e-13
      26.1000   9.93069e-14
      26.2000   7.16810e-14
      26.3000   5.56003e-14
      26.4000   3.96596e-14
      26.5000   3.08942e-14
      26.6000   2.21653e-14
      26.7000   1.70271e-14
      26.8000   1.23311e-14
      26.9000   9.30573e-15
      27.0000   6.81006e-15
      27.1000   5.03863e-15
      27.2000   3.72829e-15
      27.3000   2.70353e-15
      27.4000   2.03361e-15
      27.5000   1.44843e-15
      27.6000   1.09999e-15
      27.7000   7.62560e-16
      27.8000   5.86043e-16
      27.9000   4.10243e-16
      28.0000   3.08364e-16
      28.1000   2.21156e-16
      28.2000   1.60925e-16
      28.3000   1.18722e-16
      28.4000   8.39903e-17
      28.5000   6.33206e-17
      28.6000   4.34900e-17
      28.7000   3.37719e-17
      28.8000   2.40939e-17
      28.9000   1.81730e-17
      29.0000   1.33359e-17
      29.1000   9.64931e-18
      29.2000   7.26273e-18
      29.3000   5.05352e-18
      29.4000   3.89101e-18
      29.5000   2.73337e-18
      29.6000   2.05041e-18
      29.7000   1.49400e-18
      29.8000   1.06264e-18
      29.9000   7.98806e-19
      30.0000   5.41567e-19
      30.1000   4.18163e-19
      30.2000   2.95272e-19
      30.3000   2.16428e-19
      30.4000   1.62849e-19
      30.5000   1.14945e-19
      30.6000   8.75059e-20
      30.7000   6.01814e-20
      30.8000   4.44174e-20
      30.9000   3.21592e-20
      31.0000   2.20188e-20
      31.1000   1.66001e-20
      31.2000   1.12041e-20
      31.3000   8.31163e-21
      31.4000   5.96207e-21
      31.5000   4.04819e-21
      31.6000   3.04066e-21
      31.7000   2.03737e-21
      31.8000   1.49634e-21
      31.9000   1.07272e-21
      32.0000   7.13554e-22
      32.1000   5.37481e-22
      32.2000   3.62143e-22
      32.3000   2.58640e-22
      32.4000   1.86957e-22
      32.5000   1.20228e-22
      32.6000   9.14109e-23
      32.7000   6.27127e-23
      32.8000   4.28081e-23
      32.9000   3.14510e-23
      33.0000   2.01419e-23
      33.1000   1.49057e-23
      33.2000   1.05075e-23
      33.3000   6.75689e-24
      33.4000   5.07402e-24
      33.5000   3.39809e-24
      33.6000   2.31621e-24
      33.7000   1.68617e-24
      33.8000   1.05864e-24
      33.9000   7.78115e-25
      34.0000   5.46354e-25
      34.1000   3.39945e-25
      34.2000   2.54748e-25
      34.3000   1.69864e-25
      34.4000   1.09270e-25
      34.5000   7.98564e-26
      34.6000   5.05526e-26
      34.7000   3.41617e-26
      34.8000   2.37892e-26
      34.9000   1.34547e-26
      35.0000   9.62755e-27
      35.1000   6.48352e-27
      35.2000   3.58752e-27
      35.3000   2.65400e-27
      35.4000   1.72389e-27
      35.5000   9.85495e-28
      35.6000   7.16057e-28
      35.7000   4.47603e-28
      35.8000   2.65020e-28
      35.9000   1.89195e-28
      36.0000   1.13646e-28
      36.1000   6.97898e-29
      36.2000   4.89925e-29
      36.3000   2.82709e-29
      36.4000   1.80001e-29
      36.5000   1.24428e-29
      36.6000   6.90616e-30
      36.7000   4.54656e-30
      36.8000   3.10154e-30
      36.9000   1.66188e-30
      37.0000   1.12511e-30
      37.1000   7.59518e-31
      37.2000   3.95255e-31
      37.3000   2.72781e-31
      37.4000   1.82823e-31
      37.5000   9.31979e-32
      37.6000   6.47837e-32
      37.7000   4.32725e-32
      37.8000   2.18408e-32
      37.9000   1.50681e-32
      38.0000   1.00706e-32
      38.1000   5.09128e-33
      38.2000   3.43000e-33
      38.3000   2.30273e-33
      38.4000   1.17958e-33
      38.5000   7.63397e-34
      38.6000   5.16771e-34
      38.7000   2.71042e-34
      38.8000   1.65997e-34
      38.9000   1.13679e-34
      39.0000   6.15489e-35
      39.1000   3.52257e-35
      39.2000   2.44710e-35
      39.3000   1.37550e-35
      39.4000   7.28571e-36
      39.5000   5.14471e-36
      39.6000   3.01156e-36
      39.7000   1.46671e-36
      39.8000   1.05428e-36
      39.9000   6.43319e-37
      40.0000   2.87008e-37
      40.1000   2.10164e-37
      40.2000   1.33596e-37
      40.3000   5.73108e-38
      40.4000   4.06749e-38
      40.5000   2.68870e-38
      40.6000   1.31481e-38
      40.7000   7.62846e-39
      40.8000   5.23012e-39
      40.9000   2.84052e-39
      41.0000   1.38361e-39
      41.1000   9.81140e-40
      41.2000   5.80145e-40
      41.3000   2.42376e-40
      41.4000   1.77256e-40
      41.5000   1.12358e-40
      41.6000   4.76946e-41
      41.7000   3.08019e-41
      41.8000   2.06776e-41
      41.9000   1.05910e-41
      42.0000   5.14417e-42
      42.1000   3.62376e-42
      42.2000   2.10615e-42
      42.3000   8.21161e-43
      42.4000   6.03960e-43
      42.5000   3.86758e-43
      42.6000   1.69557e-43
      42.7000   9.52883e-44
      42.8000   6.44597e-44
      42.9000   3.22299e-44
      43.0000   1.54143e-44
      43.1000   1.26117e-44
      43.2000   7.00649e-45
      43.3000       0.00000
      43.4000   2.80260e-45
      43.5000   2.80260e-45
      43.6000   2.80260e-45
      43.7000       0.00000
      43.8000       0.00000
      43.9000       0.00000
      44.0000       0.00000
      44.1000       0.00000
      44.2000       0.00000
      44.3000       0.00000
      44.4000       0.00000
      44.5000       0.00000
      44.6000       0.00000
      44.7000       0.00000
      44.8000       0.00000
      44.9000       0.00000
      45.0000       0.00000
      45.1000       0.00000
      45.2000       0.00000
      45.3000       0.00000
      45.4000       0.00000
      45.5000       0.00000
      45.6000       0.00000
      45.7000       0.00000
      45.8000       0.00000
      45.9000       0.00000
      46.0000       0.00000
      46.1000       0.00000
      46.2000       0.00000
      46.3000       0.00000
      46.4000       0.00000
      46.5000       0.00000
      46.6000       0.00000
      46.7000       0.00000
      46.8000       0.00000
      46.9000       0.00000
      47.0000       0.00000
      47.1000       0.00000
      47.2000       0.00000
      47.3000       0.00000
      47.4000       0.00000
      47.5000       0.00000
      47.6000       0.00000
      47.7000       0.00000
      47.8000       0.00000
      47.9000       0.00000
      48.0000       0.00000
      48.1000       0.00000
      48.2000       0.00000
      48.3000       0.00000
      48.4000       0.00000
      48.5000       0.00000
      48.6000       0.00000
      48.7000       0.00000
      48.8000       0.00000
      48.9000       0.00000
      49.0000       0.00000
      49.1000       0.00000
      49.2000       0.00000
      49.3000       0.00000
      49.4000       0.00000
      49.5000       0.00000
      49.6000       0.00000
      49.7000       0.00000
      49.8000       0.00000
      49.9000       0.00000
      50.0000       0.00000
      50.1000       0.00000
      50.2000       0.00000
      50.3000       0.00000
      50.4000       0.00000
      50.5000       0.00000
      50.6000       0.00000
      50.7000       0.00000
      50.8000       0.00000
      50.9000       0.00000
      51.0000       0.00000
      51.1000       0.00000
      51.2000       0.00000
      51.3000       0.00000
      51.4000       0.00000
      51.5000       0.00000
      51.6000       0.00000
      51.7000       0.00000
      51.8000       0.00000
      51.9000       0.00000
      52.0000       0.00000
      52.1000       0.00000
      52.2000       0.00000
      52.3000       0.00000
      52.4000       0.00000
      52.5000       0.00000
      52.6000       0.00000
      52.7000       0.00000
      52.8000       0.00000
      52.9000       0.00000
      53.0000       0.00000
      53.1000       0.00000
      53.2000       0.00000
      53.3000       0.00000
      53.4000       0.00000
      53.5000       0.00000
      53.6000       0.00000
      53.7000       0.00000
      53.8000       0.00000
      53.9000       0.00000
      54.0000       0.00000
      54.1000       0.00000
      54.2000       0.00000
      54.3000       0.00000
      54.4000       0.00000
      54.5000       0.00000
      54.6000       0.00000
      54.7000       0.00000
      54.8000       0.00000
      54.9000       0.00000
      55.0000       0.00000
      55.1000       0.00000
      55.2000       0.00000
      55.3000       0.00000
      55.4000       0.00000
      55.5000       0.00000
      55.6000       0.00000
      55.7000       0.00000
      55.8000       0.00000
      55.9000       0.00000
      56.0000       0.00000
      56.1000       0.00000
      56.2000       0.00000
      56.3000       0.00000
      56.4000       0.00000
      56.5000       0.00000
      56.6000       0.00000
      56.7000       0.00000
      56.8000       0.00000
      56.9000       0.00000
      57.0000       0.00000
      57.1000       0.00000
      57.2000       0.00000
      57.3000       0.00000
      57.4000       0.00000
      57.5000       0.00000
      57.6000       0.00000
      57.7000       0.00000
      57.8000       0.00000
      57.9000       0.00000
      58.0000       0.00000
      58.1000       0.00000
      58.2000       0.00000
      58.3000       0.00000
      58.4000       0.00000
      58.5000       0.00000
      58.6000       0.00000
      58.7000       0.00000
      58.8000       0.00000
      58.9000       0.00000
      59.0000       0.00000
      59.1000       0.00000
      59.2000       0.00000
      59.3000       0.00000
      59.4000       0.00000
      59.5000       0.00000
      59.6000       0.00000
      59.7000       0.00000
      59.8000       0.00000
      59.9000       0.00000
      60.0000       0.00000
      60.1000       0.00000
      60.2000       0.00000
      60.3000       0.00000
      60.4000       0.00000
      60.5000       0.00000
      60.6000       0.00000
      60.7000       0.00000
      60.8000       0.00000
      60.9000       0.00000
      61.0000       0.00000
      61.1000       0.00000
      61.2000       0.00000
      61.3000       0.00000
      61.4000       0.00000
      61.5000       0.00000
      61.6000       0.00000
      61.7000       0.00000
      61.8000       0.00000
      61.9000       0.00000
      62.0000       0.00000
      62.1000       0.00000
      62.2000       0.00000
      62.3000       0.00000
      62.4000       0.00000
      62.5000       0.00000
      62.6000       0.00000
      62.7000       0.00000
      62.8000       0.00000
      62.9000       0.00000
      63.0000       0.00000
      63.1000       0.00000
      63.2000       0.00000
      63.3000       0.00000
      63.4000       0.00000
      63.5000       0.00000
      63.6000       0.00000
      63.7000       0.00000
      63.8000       0.00000
      63.9000       0.00000
      64.0000       0.00000
      64.1000       0.00000
      64.2000       0.00000
      64.3000       0.00000
      64.4000       0.00000
      64.5000       0.00000
      64.6000       0.00000
      64.7000       0.00000
      64.8000       0.00000
      64.9000       0.00000
      65.0000       0.00000
      65.1000       0.00000
      65.2000       0.00000
      65.3000       0.00000
      65.4000       0.00000
      65.5000       0.00000
      65.6000       0.00000
      65.7000       0.00000
      65.8000       0.00000
      65.9000       0.00000
      66.0000       0.00000
      66.1000       0.00000
      66.2000       0.00000
      66.3000       0.00000
      66.4000       0.00000
      66.5000       0.00000
      66.6000       0.00000
      66.7000       0.00000
      66.8000       0.00000
      66.9000       0.00000
      67.0000       0.00000
      67.1000       0.00000
      67.2000       0.00000
      67.3000       0.00000
      67.4000       0.00000
      67.5000       0.00000
      67.6000       0.00000
      67.7000       0.00000
      67.8000       0.00000
      67.9000       0.00000
      68.0000       0.00000
      68.1000       0.00000
      68.2000       0.00000
      68.3000       0.00000
      68.4000       0.00000
      68.5000       0.00000
      68.6000       0.00000
      68.7000       0.00000
      68.8000       0.00000
      68.9000       0.00000
      69.0000       0.00000
      69.1000       0.00000
      69.2000       0.00000
      69.3000       0.00000
      69.4000       0.00000
      69.5000       0.00000
      69.6000       0.00000
      69.7000       0.00000
      69.8000       0.00000
      69.9000       0.00000
      70.0000       0.00000
      70.1000       0.00000
      70.2000       0.00000
      70.3000       0.00000
      70.4000       0.00000
      70.5000       0.00000
      70.6000       0.00000
      70.7000       0.00000
      70.8000       0.00000
      70.9000       0.00000
      71.0000       0.00000
      71.1000       0.00000
      71.2000       0.00000
      71.3000       0.00000
      71.4000       0.00000
      71.5000       0.00000
      71.6000       0.00000
      71.7000       0.00000
      71.8000       0.00000
      71.9000       0.00000
      72.0000       0.00000
