Filter Ti-poly
observation_date 2020-09-22 22:45:45
wavelength effective area
      1.00000   2.76776e-10
      1.10000   7.88639e-10
      1.20000   2.04569e-09
      1.30000   4.87934e-09
      1.40000   1.10400e-08
      1.50000   2.34773e-08
      1.60000   4.73588e-08
      1.70000   9.15818e-08
      1.80000   1.69777e-07
      1.90000   3.03741e-07
      2.00000   5.25452e-07
      2.10000   8.82856e-07
      2.20000   1.44762e-06
      2.30000   2.31337e-06
      2.40000   3.60951e-06
      2.50000   5.78531e-06
      2.60000   8.95656e-06
      2.70000   1.33530e-05
      2.80000   1.95268e-05
      2.90000   2.82618e-05
      3.00000   4.02664e-05
      3.10000   5.66333e-05
      3.20000   7.87838e-05
      3.30000   0.000108484
      3.40000   0.000147826
      3.50000   0.000199489
      3.60000   0.000267970
      3.70000   0.000356141
      3.80000   0.000471369
      3.90000   0.000620424
      4.00000   0.000811541
      4.10000    0.00105663
      4.20000    0.00137082
      4.30000    0.00177342
      4.40000    0.00228818
      4.50000    0.00294426
      4.60000    0.00377581
      4.70000    0.00484209
      4.80000    0.00620323
      4.90000    0.00784490
      5.00000     0.0101824
      5.10000     0.0130302
      5.20000     0.0167241
      5.30000     0.0212839
      5.40000     0.0270436
      5.50000     0.0344226
      5.60000     0.0424713
      5.70000     0.0552072
      5.80000     0.0647218
      5.90000     0.0988192
      6.00000      0.132836
      6.10000      0.169775
      6.20000      0.208479
      6.30000      0.245393
      6.40000      0.277065
      6.50000      0.300381
      6.60000      0.310925
      6.70000      0.320617
      6.80000      0.321041
      6.90000      0.421178
      7.00000      0.458021
      7.10000      0.484387
      7.20000      0.505325
      7.30000      0.522395
      7.40000      0.535416
      7.50000      0.545772
      7.60000      0.553571
      7.70000      0.557349
      7.80000      0.556026
      7.90000      0.555364
      8.00000      0.802908
      8.10000      0.878619
      8.20000      0.892550
      8.30000      0.902394
      8.40000      0.908761
      8.50000      0.913680
      8.60000      0.916871
      8.70000      0.918935
      8.80000      0.919572
      8.90000      0.919248
      9.00000      0.917897
      9.10000      0.915570
      9.20000      0.912450
      9.30000      0.908456
      9.40000      0.903734
      9.50000      0.898342
      9.60000      0.892231
      9.70000      0.885510
      9.80000      0.878327
      9.90000      0.870709
      10.0000      0.862718
      10.1000      0.854366
      10.2000      0.845675
      10.3000      0.836594
      10.4000      0.827148
      10.5000      0.817364
      10.6000      0.807280
      10.7000      0.796921
      10.8000      0.786296
      10.9000      0.775437
      11.0000      0.764359
      11.1000      0.753096
      11.2000      0.741652
      11.3000      0.730061
      11.4000      0.718317
      11.5000      0.706424
      11.6000      0.694400
      11.7000      0.682194
      11.8000      0.669885
      11.9000      0.657394
      12.0000      0.644042
      12.1000      0.633037
      12.2000      0.633116
      12.3000      0.626500
      12.4000      0.615255
      12.5000      0.603628
      12.6000      0.591867
      12.7000      0.580070
      12.8000      0.568274
      12.9000      0.556491
      13.0000      0.544762
      13.1000      0.533118
      13.2000      0.521575
      13.3000      0.510148
      13.4000      0.498852
      13.5000      0.487819
      13.6000      0.477022
      13.7000      0.466352
      13.8000      0.455804
      13.9000      0.445397
      14.0000      0.435130
      14.1000      0.424987
      14.2000      0.414972
      14.3000      0.405080
      14.4000      0.395303
      14.5000      0.385652
      14.6000      0.376130
      14.7000      0.366729
      14.8000      0.357451
      14.9000      0.348300
      15.0000      0.339279
      15.1000      0.330394
      15.2000      0.321671
      15.3000      0.313091
      15.4000      0.304649
      15.5000      0.296348
      15.6000      0.288206
      15.7000      0.280219
      15.8000      0.272425
      15.9000      0.264795
      16.0000      0.257324
      16.1000      0.250017
      16.2000      0.242910
      16.3000      0.235954
      16.4000      0.229136
      16.5000      0.222451
      16.6000      0.215914
      16.7000      0.209527
      16.8000      0.203263
      16.9000      0.197120
      17.0000      0.191122
      17.1000      0.185266
      17.2000      0.179523
      17.3000      0.173900
      17.4000      0.168523
      17.5000      0.163355
      17.6000      0.158368
      17.7000      0.153591
      17.8000      0.149110
      17.9000      0.144729
      18.0000      0.140415
      18.1000      0.136213
      18.2000      0.132052
      18.3000      0.127923
      18.4000      0.123819
      18.5000      0.119749
      18.6000      0.115700
      18.7000      0.111655
      18.8000      0.107723
      18.9000      0.103872
      19.0000      0.100138
      19.1000     0.0965254
      19.2000     0.0930011
      19.3000     0.0896175
      19.4000     0.0863473
      19.5000     0.0831621
      19.6000     0.0801380
      19.7000     0.0771980
      19.8000     0.0743341
      19.9000     0.0716118
      20.0000     0.0689482
      20.1000     0.0663648
      20.2000     0.0638688
      20.3000     0.0614236
      20.4000     0.0590737
      20.5000     0.0567819
      20.6000     0.0545430
      20.7000     0.0523964
      20.8000     0.0502903
      20.9000     0.0482565
      21.0000     0.0463770
      21.1000     0.0446164
      21.2000     0.0432092
      21.3000     0.0419042
      21.4000     0.0408193
      21.5000     0.0399826
      21.6000     0.0393958
      21.7000     0.0387803
      21.8000     0.0381551
      21.9000     0.0374499
      22.0000     0.0366963
      22.1000     0.0358231
      22.2000     0.0347366
      22.3000     0.0334666
      22.4000     0.0315218
      22.5000     0.0293726
      22.6000     0.0247363
      22.7000     0.0219433
      22.8000     0.0281152
      22.9000     0.0357320
      23.0000     0.0448964
      23.1000     0.0503986
      23.2000     0.0525525
      23.3000     0.0523752
      23.4000     0.0510443
      23.5000     0.0496828
      23.6000     0.0483190
      23.7000     0.0468720
      23.8000     0.0454262
      23.9000     0.0440185
      24.0000     0.0426198
      24.1000     0.0412423
      24.2000     0.0398815
      24.3000     0.0385663
      24.4000     0.0372690
      24.5000     0.0360094
      24.6000     0.0347729
      24.7000     0.0335797
      24.8000     0.0324095
      24.9000     0.0312781
      25.0000     0.0301715
      25.1000     0.0291048
      25.2000     0.0280613
      25.3000     0.0270552
      25.4000     0.0260719
      25.5000     0.0251277
      25.6000     0.0242041
      25.7000     0.0233198
      25.8000     0.0224525
      25.9000     0.0216250
      26.0000     0.0208103
      26.1000     0.0200359
      26.2000     0.0192703
      26.3000     0.0185477
      26.4000     0.0178294
      26.5000     0.0171549
      26.6000     0.0164840
      26.7000     0.0158524
      26.8000     0.0152290
      26.9000     0.0146362
      27.0000     0.0140550
      27.1000     0.0134958
      27.2000     0.0129517
      27.3000     0.0558328
      27.4000      0.152761
      27.5000      0.223271
      27.6000      0.219592
      27.7000      0.215924
      27.8000      0.212181
      27.9000      0.208457
      28.0000      0.204803
      28.1000      0.201177
      28.2000      0.197611
      28.3000      0.194089
      28.4000      0.190610
      28.5000      0.187194
      28.6000      0.183803
      28.7000      0.180520
      28.8000      0.177254
      28.9000      0.174054
      29.0000      0.170885
      29.1000      0.167761
      29.2000      0.164685
      29.3000      0.161635
      29.4000      0.158655
      29.5000      0.155691
      29.6000      0.152792
      29.7000      0.149921
      29.8000      0.147093
      29.9000      0.144316
      30.0000      0.141556
      30.1000      0.138870
      30.2000      0.136198
      30.3000      0.138830
      30.4000      0.144468
      30.5000      0.148308
      30.6000      0.145585
      30.7000      0.142877
      30.8000      0.140230
      30.9000      0.137612
      31.0000      0.135029
      31.1000      0.132503
      31.2000      0.129992
      31.3000      0.127545
      31.4000      0.125121
      31.5000      0.122735
      31.6000      0.120410
      31.7000      0.118099
      31.8000      0.115842
      31.9000      0.113608
      32.0000      0.111385
      32.1000      0.109170
      32.2000      0.106968
      32.3000      0.104821
      32.4000      0.102704
      32.5000      0.100608
      32.6000     0.0985977
      32.7000     0.0965988
      32.8000     0.0946405
      32.9000     0.0927218
      33.0000     0.0908146
      33.1000     0.0890201
      33.2000     0.0872486
      33.3000     0.0854991
      33.4000     0.0837984
      33.5000     0.0821089
      33.6000     0.0804593
      33.7000     0.0788406
      33.8000     0.0772312
      33.9000     0.0756743
      34.0000     0.0741325
      34.1000     0.0726179
      34.2000     0.0711464
      34.3000     0.0696829
      34.4000     0.0682475
      34.5000     0.0668465
      34.6000     0.0654533
      34.7000     0.0640912
      34.8000     0.0627479
      34.9000     0.0614118
      35.0000     0.0601244
      35.1000     0.0588485
      35.2000     0.0575877
      35.3000     0.0564028
      35.4000     0.0552246
      35.5000     0.0540642
      35.6000     0.0529390
      35.7000     0.0518201
      35.8000     0.0507245
      35.9000     0.0496570
      36.0000     0.0485954
      36.1000     0.0475615
      36.2000     0.0465497
      36.3000     0.0455433
      36.4000     0.0445677
      36.5000     0.0436091
      36.6000     0.0426557
      36.7000     0.0417356
      36.8000     0.0408287
      36.9000     0.0399267
      37.0000     0.0390590
      37.1000     0.0382018
      37.2000     0.0373491
      37.3000     0.0365311
      37.4000     0.0357218
      37.5000     0.0349168
      37.6000     0.0341455
      37.7000     0.0333820
      37.8000     0.0326225
      37.9000     0.0318955
      38.0000     0.0311762
      38.1000     0.0304607
      38.2000     0.0297753
      38.3000     0.0290981
      38.4000     0.0284244
      38.5000     0.0277782
      38.6000     0.0271414
      38.7000     0.0265080
      38.8000     0.0258986
      38.9000     0.0253005
      39.0000     0.0247055
      39.1000     0.0241309
      39.2000     0.0235697
      39.3000     0.0230116
      39.4000     0.0224694
      39.5000     0.0219434
      39.6000     0.0214204
      39.7000     0.0209088
      39.8000     0.0204165
      39.9000     0.0199271
      40.0000     0.0194444
      40.1000     0.0189848
      40.2000     0.0185279
      40.3000     0.0180736
      40.4000     0.0176433
      40.5000     0.0172166
      40.6000     0.0167923
      40.7000     0.0163861
      40.8000     0.0159880
      40.9000     0.0155923
      41.0000     0.0152083
      41.1000     0.0148374
      41.2000     0.0144686
      41.3000     0.0141058
      41.4000     0.0137612
      41.5000     0.0134185
      41.6000     0.0130778
      41.7000     0.0127551
      41.8000     0.0124365
      41.9000     0.0121198
      42.0000     0.0118147
      42.1000     0.0115193
      42.2000     0.0112256
      42.3000     0.0109366
      42.4000     0.0106628
      42.5000     0.0103905
      42.6000     0.0101199
      42.7000    0.00986295
      42.8000    0.00961075
      42.9000    0.00935999
      43.0000    0.00911625
      43.1000    0.00888311
      43.2000    0.00865130
      43.3000    0.00842090
      43.4000     0.0256829
      43.5000     0.0487790
      43.6000     0.0776104
      43.7000     0.0996715
      43.8000      0.104759
      43.9000      0.103334
      44.0000      0.101913
      44.1000      0.100537
      44.2000     0.0991662
      44.3000     0.0977989
      44.4000     0.0964527
      44.5000     0.0951330
      44.6000     0.0938166
      44.7000     0.0925036
      44.8000     0.0912328
      44.9000     0.0899706
      45.0000     0.0887116
      45.1000     0.0874675
      45.2000     0.0862544
      45.3000     0.0850444
      45.4000     0.0838375
      45.5000     0.0826604
      45.6000     0.0814986
      45.7000     0.0803398
      45.8000     0.0791855
      45.9000     0.0780705
      46.0000     0.0769581
      46.1000     0.0758487
      46.2000     0.0747893
      46.3000     0.0738133
      46.4000     0.0728400
      46.5000     0.0718691
      46.6000     0.0709334
      46.7000     0.0700163
      46.8000     0.0691016
      46.9000     0.0681892
      47.0000     0.0673251
      47.1000     0.0664662
      47.2000     0.0656094
      47.3000     0.0647604
      47.4000     0.0639392
      47.5000     0.0631201
      47.6000     0.0623031
      47.7000     0.0615018
      47.8000     0.0607241
      47.9000     0.0599482
      48.0000     0.0591745
      48.1000     0.0584182
      48.2000     0.0576755
      48.3000     0.0569347
      48.4000     0.0561959
      48.5000     0.0554836
      48.6000     0.0547829
      48.7000     0.0540840
      48.8000     0.0533868
      48.9000     0.0527128
      49.0000     0.0520448
      49.1000     0.0513785
      49.2000     0.0507139
      49.3000     0.0500718
      49.4000     0.0494331
      49.5000     0.0487959
      49.6000     0.0481604
      49.7000     0.0475474
      49.8000     0.0469365
      49.9000     0.0463271
      50.0000     0.0457199
      50.1000     0.0451315
      50.2000     0.0445566
      50.3000     0.0439885
      50.4000     0.0434266
      50.5000     0.0428707
      50.6000     0.0423214
      50.7000     0.0417787
      50.8000     0.0412421
      50.9000     0.0407121
      51.0000     0.0401885
      51.1000     0.0396714
      51.2000     0.0391600
      51.3000     0.0386555
      51.4000     0.0381575
      51.5000     0.0376640
      51.6000     0.0371757
      51.7000     0.0366925
      51.8000     0.0362098
      51.9000     0.0357324
      52.0000     0.0352599
      52.1000     0.0347931
      52.2000     0.0343313
      52.3000     0.0338743
      52.4000     0.0334241
      52.5000     0.0329791
      52.6000     0.0325288
      52.7000     0.0320733
      52.8000     0.0316228
      52.9000     0.0311786
      53.0000     0.0307403
      53.1000     0.0303067
      53.2000     0.0298791
      53.3000     0.0294567
      53.4000     0.0290388
      53.5000     0.0286266
      53.6000     0.0282194
      53.7000     0.0278168
      53.8000     0.0274193
      53.9000     0.0270267
      54.0000     0.0266394
      54.1000     0.0262581
      54.2000     0.0258811
      54.3000     0.0255080
      54.4000     0.0251398
      54.5000     0.0247760
      54.6000     0.0244170
      54.7000     0.0240636
      54.8000     0.0237149
      54.9000     0.0233701
      55.0000     0.0230298
      55.1000     0.0226931
      55.2000     0.0223504
      55.3000     0.0220037
      55.4000     0.0216616
      55.5000     0.0213236
      55.6000     0.0209903
      55.7000     0.0206616
      55.8000     0.0203370
      55.9000     0.0200173
      56.0000     0.0197051
      56.1000     0.0193933
      56.2000     0.0190822
      56.3000     0.0187757
      56.4000     0.0184731
      56.5000     0.0181748
      56.6000     0.0178810
      56.7000     0.0175915
      56.8000     0.0173058
      56.9000     0.0170247
      57.0000     0.0167544
      57.1000     0.0164922
      57.2000     0.0162335
      57.3000     0.0159783
      57.4000     0.0157265
      57.5000     0.0154781
      57.6000     0.0152331
      57.7000     0.0149914
      57.8000     0.0147536
      57.9000     0.0145196
      58.0000     0.0142887
      58.1000     0.0140605
      58.2000     0.0138357
      58.3000     0.0136140
      58.4000     0.0133954
      58.5000     0.0131800
      58.6000     0.0129680
      58.7000     0.0127590
      58.8000     0.0125528
      58.9000     0.0123494
      59.0000     0.0121490
      59.1000     0.0119514
      59.2000     0.0117568
      59.3000     0.0115651
      59.4000     0.0113763
      59.5000     0.0111901
      59.6000     0.0110068
      59.7000     0.0108260
      59.8000     0.0106476
      59.9000     0.0104719
      60.0000     0.0102990
      60.1000     0.0101287
      60.2000    0.00996075
      60.3000    0.00979539
      60.4000    0.00963257
      60.5000    0.00947229
      60.6000    0.00931414
      60.7000    0.00915813
      60.8000    0.00900433
      60.9000    0.00885265
      61.0000    0.00870338
      61.1000    0.00855657
      61.2000    0.00841200
      61.3000    0.00826957
      61.4000    0.00812931
      61.5000    0.00799119
      61.6000    0.00785504
      61.7000    0.00772135
      61.8000    0.00759201
      61.9000    0.00746545
      62.0000    0.00734077
      62.1000    0.00721794
      62.2000    0.00709716
      62.3000    0.00697820
      62.4000    0.00686092
      62.5000    0.00674534
      62.6000    0.00663150
      62.7000    0.00651980
      62.8000    0.00641487
      62.9000    0.00631161
      63.0000    0.00620992
      63.1000    0.00610971
      63.2000    0.00601087
      63.3000    0.00591339
      63.4000    0.00581738
      63.5000    0.00572288
      63.6000    0.00562969
      63.7000    0.00553783
      63.8000    0.00544742
      63.9000    0.00535841
      64.0000    0.00527071
      64.1000    0.00518432
      64.2000    0.00509932
      64.3000    0.00501565
      64.4000    0.00493315
      64.5000    0.00485176
      64.6000    0.00477154
      64.7000    0.00469250
      64.8000    0.00461462
      64.9000    0.00453789
      65.0000    0.00446240
      65.1000    0.00438823
      65.2000    0.00431521
      65.3000    0.00424323
      65.4000    0.00417228
      65.5000    0.00410235
      65.6000    0.00403340
      65.7000    0.00396553
      65.8000    0.00389876
      65.9000    0.00383310
      66.0000    0.00376854
      66.1000    0.00370501
      66.2000    0.00364243
      66.3000    0.00358079
      66.4000    0.00352007
      66.5000    0.00346023
      66.6000    0.00340127
      66.7000    0.00334323
      66.8000    0.00328619
      66.9000    0.00323045
      67.0000    0.00317590
      67.1000    0.00312223
      67.2000    0.00306939
      67.3000    0.00301741
      67.4000    0.00296619
      67.5000    0.00291574
      67.6000    0.00286606
      67.7000    0.00281718
      67.8000    0.00276900
      67.9000    0.00272138
      68.0000    0.00267450
      68.1000    0.00262843
      68.2000    0.00258308
      68.3000    0.00253847
      68.4000    0.00249456
      68.5000    0.00245136
      68.6000    0.00240887
      68.7000    0.00236707
      68.8000    0.00232593
      68.9000    0.00228603
      69.0000    0.00224995
      69.1000    0.00221738
      69.2000    0.00218578
      69.3000    0.00215501
      69.4000    0.00212546
      69.5000    0.00209535
      69.6000    0.00206437
      69.7000    0.00203465
      69.8000    0.00200636
      69.9000    0.00197846
      70.0000    0.00195087
      70.1000    0.00192309
      70.2000    0.00189668
      70.3000    0.00187163
      70.4000    0.00184667
      70.5000    0.00182236
      70.6000    0.00179865
      70.7000    0.00177526
      70.8000    0.00175213
      70.9000    0.00172846
      71.0000    0.00170434
      71.1000    0.00168133
      71.2000    0.00165942
      71.3000    0.00163621
      71.4000    0.00161141
      71.5000    0.00158856
      71.6000    0.00156854
      71.7000    0.00154838
      71.8000    0.00152757
      71.9000    0.00150749
      72.0000    0.00148891
