Filter Ti-poly
observation_date 2022-09-22 22:45:45
wavelength effective area
      1.00000   2.76776e-10
      1.10000   7.88638e-10
      1.20000   2.04568e-09
      1.30000   4.87933e-09
      1.40000   1.10399e-08
      1.50000   2.34772e-08
      1.60000   4.73585e-08
      1.70000   9.15812e-08
      1.80000   1.69776e-07
      1.90000   3.03738e-07
      2.00000   5.25446e-07
      2.10000   8.82844e-07
      2.20000   1.44759e-06
      2.30000   2.31333e-06
      2.40000   3.60944e-06
      2.50000   5.78518e-06
      2.60000   8.95634e-06
      2.70000   1.33526e-05
      2.80000   1.95262e-05
      2.90000   2.82608e-05
      3.00000   4.02649e-05
      3.10000   5.66308e-05
      3.20000   7.87801e-05
      3.30000   0.000108479
      3.40000   0.000147818
      3.50000   0.000199476
      3.60000   0.000267952
      3.70000   0.000356115
      3.80000   0.000471332
      3.90000   0.000620371
      4.00000   0.000811466
      4.10000    0.00105652
      4.20000    0.00137068
      4.30000    0.00177322
      4.40000    0.00228789
      4.50000    0.00294387
      4.60000    0.00377528
      4.70000    0.00484137
      4.80000    0.00620224
      4.90000    0.00784357
      5.00000     0.0101806
      5.10000     0.0130277
      5.20000     0.0167207
      5.30000     0.0212793
      5.40000     0.0270375
      5.50000     0.0344144
      5.60000     0.0424607
      5.70000     0.0551927
      5.80000     0.0647038
      5.90000     0.0987904
      6.00000      0.132796
      6.10000      0.169720
      6.20000      0.208409
      6.30000      0.245307
      6.40000      0.276963
      6.50000      0.300265
      6.60000      0.310799
      6.70000      0.320482
      6.80000      0.320900
      6.90000      0.420985
      7.00000      0.457802
      7.10000      0.484146
      7.20000      0.505063
      7.30000      0.522113
      7.40000      0.535116
      7.50000      0.545454
      7.60000      0.553236
      7.70000      0.556999
      7.80000      0.555664
      7.90000      0.554989
      8.00000      0.802345
      8.10000      0.877982
      8.20000      0.891879
      8.30000      0.901693
      8.40000      0.908030
      8.50000      0.912920
      8.60000      0.916083
      8.70000      0.918119
      8.80000      0.918729
      8.90000      0.918377
      9.00000      0.917000
      9.10000      0.914647
      9.20000      0.911501
      9.30000      0.907482
      9.40000      0.902736
      9.50000      0.897319
      9.60000      0.891185
      9.70000      0.884441
      9.80000      0.877236
      9.90000      0.869596
      10.0000      0.861584
      10.1000      0.853211
      10.2000      0.844500
      10.3000      0.835400
      10.4000      0.825936
      10.5000      0.816134
      10.6000      0.806033
      10.7000      0.795657
      10.8000      0.785016
      10.9000      0.774143
      11.0000      0.763050
      11.1000      0.751774
      11.2000      0.740317
      11.3000      0.728714
      11.4000      0.716960
      11.5000      0.705056
      11.6000      0.693023
      11.7000      0.680808
      11.8000      0.668492
      11.9000      0.655994
      12.0000      0.642639
      12.1000      0.631627
      12.2000      0.631674
      12.3000      0.625040
      12.4000      0.613789
      12.5000      0.602159
      12.6000      0.590395
      12.7000      0.578595
      12.8000      0.566798
      12.9000      0.555014
      13.0000      0.543286
      13.1000      0.531644
      13.2000      0.520102
      13.3000      0.508677
      13.4000      0.497385
      13.5000      0.486355
      13.6000      0.475562
      13.7000      0.464897
      13.8000      0.454354
      13.9000      0.443952
      14.0000      0.433691
      14.1000      0.423556
      14.2000      0.413547
      14.3000      0.403663
      14.4000      0.393894
      14.5000      0.384252
      14.6000      0.374740
      14.7000      0.365347
      14.8000      0.356080
      14.9000      0.346940
      15.0000      0.337930
      15.1000      0.329057
      15.2000      0.320345
      15.3000      0.311778
      15.4000      0.303348
      15.5000      0.295061
      15.6000      0.286933
      15.7000      0.278960
      15.8000      0.271180
      15.9000      0.263563
      16.0000      0.256107
      16.1000      0.248814
      16.2000      0.241722
      16.3000      0.234782
      16.4000      0.227979
      16.5000      0.221309
      16.6000      0.214787
      16.7000      0.208416
      16.8000      0.202168
      16.9000      0.196042
      17.0000      0.190060
      17.1000      0.184221
      17.2000      0.178494
      17.3000      0.172888
      17.4000      0.167528
      17.5000      0.162376
      17.6000      0.157405
      17.7000      0.152644
      17.8000      0.148178
      17.9000      0.143813
      18.0000      0.139514
      18.1000      0.135328
      18.2000      0.131183
      18.3000      0.127069
      18.4000      0.122982
      18.5000      0.118929
      18.6000      0.114896
      18.7000      0.110869
      18.8000      0.106954
      18.9000      0.103121
      19.0000     0.0994035
      19.1000     0.0958079
      19.2000     0.0923005
      19.3000     0.0889335
      19.4000     0.0856796
      19.5000     0.0825107
      19.6000     0.0795022
      19.7000     0.0765777
      19.8000     0.0737292
      19.9000     0.0710217
      20.0000     0.0683730
      20.1000     0.0658042
      20.2000     0.0633226
      20.3000     0.0608918
      20.4000     0.0585560
      20.5000     0.0562783
      20.6000     0.0540534
      20.7000     0.0519203
      20.8000     0.0498279
      20.9000     0.0478075
      21.0000     0.0459403
      21.1000     0.0441914
      21.2000     0.0427927
      21.3000     0.0414955
      21.4000     0.0404165
      21.5000     0.0395835
      21.6000     0.0389980
      21.7000     0.0383842
      21.8000     0.0377609
      21.9000     0.0370585
      22.0000     0.0363085
      22.1000     0.0354402
      22.2000     0.0343610
      22.3000     0.0331008
      22.4000     0.0311733
      22.5000     0.0290442
      22.6000     0.0244567
      22.7000     0.0217091
      22.8000     0.0278547
      22.9000     0.0354208
      23.0000     0.0445146
      23.1000     0.0499667
      23.2000     0.0520973
      23.3000     0.0519166
      23.4000     0.0505925
      23.5000     0.0492383
      23.6000     0.0478821
      23.7000     0.0464436
      23.8000     0.0450066
      23.9000     0.0436076
      24.0000     0.0422177
      24.1000     0.0408491
      24.2000     0.0394974
      24.3000     0.0381910
      24.4000     0.0369024
      24.5000     0.0356516
      24.6000     0.0344238
      24.7000     0.0332391
      24.8000     0.0320775
      24.9000     0.0309544
      25.0000     0.0298561
      25.1000     0.0287974
      25.2000     0.0277620
      25.3000     0.0267638
      25.4000     0.0257882
      25.5000     0.0248516
      25.6000     0.0239355
      25.7000     0.0230586
      25.8000     0.0221986
      25.9000     0.0213781
      26.0000     0.0205704
      26.1000     0.0198027
      26.2000     0.0190439
      26.3000     0.0183277
      26.4000     0.0176160
      26.5000     0.0169476
      26.6000     0.0162830
      26.7000     0.0156573
      26.8000     0.0150399
      26.9000     0.0144528
      27.0000     0.0138772
      27.1000     0.0133235
      27.2000     0.0127848
      27.3000     0.0551069
      27.4000      0.150757
      27.5000      0.220316
      27.6000      0.216659
      27.7000      0.213014
      27.8000      0.209297
      27.9000      0.205597
      28.0000      0.201969
      28.1000      0.198369
      28.2000      0.194829
      28.3000      0.191332
      28.4000      0.187879
      28.5000      0.184488
      28.6000      0.181123
      28.7000      0.177865
      28.8000      0.174625
      28.9000      0.171451
      29.0000      0.168307
      29.1000      0.165209
      29.2000      0.162158
      29.3000      0.159134
      29.4000      0.156179
      29.5000      0.153241
      29.6000      0.150368
      29.7000      0.147522
      29.8000      0.144720
      29.9000      0.141968
      30.0000      0.139235
      30.1000      0.136574
      30.2000      0.133928
      30.3000      0.136496
      30.4000      0.142020
      30.5000      0.145775
      30.6000      0.143078
      30.7000      0.140397
      30.8000      0.137777
      30.9000      0.135185
      31.0000      0.132628
      31.1000      0.130129
      31.2000      0.127645
      31.3000      0.125223
      31.4000      0.122826
      31.5000      0.120466
      31.6000      0.118167
      31.7000      0.115881
      31.8000      0.113649
      31.9000      0.111441
      32.0000      0.109245
      32.1000      0.107056
      32.2000      0.104881
      32.3000      0.102760
      32.4000      0.100669
      32.5000     0.0986001
      32.6000     0.0966152
      32.7000     0.0946425
      32.8000     0.0927100
      32.9000     0.0908168
      33.0000     0.0889354
      33.1000     0.0871657
      33.2000     0.0854189
      33.3000     0.0836941
      33.4000     0.0820177
      33.5000     0.0803526
      33.6000     0.0787269
      33.7000     0.0771319
      33.8000     0.0755464
      33.9000     0.0740127
      34.0000     0.0724942
      34.1000     0.0710027
      34.2000     0.0695536
      34.3000     0.0681128
      34.4000     0.0666999
      34.5000     0.0653209
      34.6000     0.0639500
      34.7000     0.0626098
      34.8000     0.0612883
      34.9000     0.0599743
      35.0000     0.0587081
      35.1000     0.0574535
      35.2000     0.0562140
      35.3000     0.0550490
      35.4000     0.0538908
      35.5000     0.0527503
      35.6000     0.0516445
      35.7000     0.0505451
      35.8000     0.0494688
      35.9000     0.0484201
      36.0000     0.0473774
      36.1000     0.0463622
      36.2000     0.0453687
      36.3000     0.0443809
      36.4000     0.0434233
      36.5000     0.0424826
      36.6000     0.0415472
      36.7000     0.0406444
      36.8000     0.0397548
      36.9000     0.0388702
      37.0000     0.0380193
      37.1000     0.0371789
      37.2000     0.0363431
      37.3000     0.0355414
      37.4000     0.0347483
      37.5000     0.0339596
      37.6000     0.0332040
      37.7000     0.0324561
      37.8000     0.0317123
      37.9000     0.0310005
      38.0000     0.0302963
      38.1000     0.0295960
      38.2000     0.0289252
      38.3000     0.0282626
      38.4000     0.0276036
      38.5000     0.0269714
      38.6000     0.0263486
      38.7000     0.0257293
      38.8000     0.0251335
      38.9000     0.0245488
      39.0000     0.0239674
      39.1000     0.0234058
      39.2000     0.0228575
      39.3000     0.0223124
      39.4000     0.0217829
      39.5000     0.0212692
      39.6000     0.0207586
      39.7000     0.0202592
      39.8000     0.0197788
      39.9000     0.0193011
      40.0000     0.0188302
      40.1000     0.0183819
      40.2000     0.0179362
      40.3000     0.0174933
      40.4000     0.0170738
      40.5000     0.0166579
      40.6000     0.0162444
      40.7000     0.0158485
      40.8000     0.0154607
      40.9000     0.0150752
      41.0000     0.0147013
      41.1000     0.0143401
      41.2000     0.0139811
      41.3000     0.0136280
      41.4000     0.0132926
      41.5000     0.0129591
      41.6000     0.0126277
      41.7000     0.0123138
      41.8000     0.0120040
      41.9000     0.0116961
      42.0000     0.0113995
      42.1000     0.0111124
      42.2000     0.0108270
      42.3000     0.0105462
      42.4000     0.0102802
      42.5000     0.0100158
      42.6000    0.00975299
      42.7000    0.00950354
      42.8000    0.00925874
      42.9000    0.00901541
      43.0000    0.00877893
      43.1000    0.00855275
      43.2000    0.00832793
      43.3000    0.00810455
      43.4000     0.0247132
      43.5000     0.0474229
      43.6000     0.0762951
      43.7000     0.0989234
      43.8000      0.104516
      43.9000      0.103093
      44.0000      0.101674
      44.1000      0.100300
      44.2000     0.0989303
      44.3000     0.0975646
      44.4000     0.0962200
      44.5000     0.0949019
      44.6000     0.0935872
      44.7000     0.0922760
      44.8000     0.0910067
      44.9000     0.0897462
      45.0000     0.0884890
      45.1000     0.0872466
      45.2000     0.0860351
      45.3000     0.0848268
      45.4000     0.0836215
      45.5000     0.0824460
      45.6000     0.0812858
      45.7000     0.0801286
      45.8000     0.0789758
      45.9000     0.0778624
      46.0000     0.0767517
      46.1000     0.0756439
      46.2000     0.0745860
      46.3000     0.0736115
      46.4000     0.0726396
      46.5000     0.0716701
      46.6000     0.0707359
      46.7000     0.0698201
      46.8000     0.0689067
      46.9000     0.0679956
      47.0000     0.0671327
      47.1000     0.0662749
      47.2000     0.0654194
      47.3000     0.0645716
      47.4000     0.0637516
      47.5000     0.0629337
      47.6000     0.0621179
      47.7000     0.0613178
      47.8000     0.0605414
      47.9000     0.0597668
      48.0000     0.0589943
      48.1000     0.0582392
      48.2000     0.0574977
      48.3000     0.0567582
      48.4000     0.0560205
      48.5000     0.0553093
      48.6000     0.0546097
      48.7000     0.0539119
      48.8000     0.0532159
      48.9000     0.0525430
      49.0000     0.0518761
      49.1000     0.0512109
      49.2000     0.0505475
      49.3000     0.0499065
      49.4000     0.0492689
      49.5000     0.0486329
      49.6000     0.0479985
      49.7000     0.0473867
      49.8000     0.0467768
      49.9000     0.0461686
      50.0000     0.0455626
      50.1000     0.0449752
      50.2000     0.0444015
      50.3000     0.0438345
      50.4000     0.0432738
      50.5000     0.0427190
      50.6000     0.0421709
      50.7000     0.0416294
      50.8000     0.0410939
      50.9000     0.0405651
      51.0000     0.0400427
      51.1000     0.0395267
      51.2000     0.0390165
      51.3000     0.0385130
      51.4000     0.0380162
      51.5000     0.0375238
      51.6000     0.0370366
      51.7000     0.0365545
      51.8000     0.0360729
      51.9000     0.0355966
      52.0000     0.0351253
      52.1000     0.0346596
      52.2000     0.0341990
      52.3000     0.0337431
      52.4000     0.0332940
      52.5000     0.0328501
      52.6000     0.0324009
      52.7000     0.0319466
      52.8000     0.0314973
      52.9000     0.0310541
      53.0000     0.0306169
      53.1000     0.0301844
      53.2000     0.0297579
      53.3000     0.0293365
      53.4000     0.0289197
      53.5000     0.0285085
      53.6000     0.0281024
      53.7000     0.0277009
      53.8000     0.0273045
      53.9000     0.0269130
      54.0000     0.0265268
      54.1000     0.0261466
      54.2000     0.0257707
      54.3000     0.0253987
      54.4000     0.0250316
      54.5000     0.0246689
      54.6000     0.0243109
      54.7000     0.0239586
      54.8000     0.0236108
      54.9000     0.0232671
      55.0000     0.0229277
      55.1000     0.0225920
      55.2000     0.0222503
      55.3000     0.0219045
      55.4000     0.0215635
      55.5000     0.0212265
      55.6000     0.0208942
      55.7000     0.0205665
      55.8000     0.0202430
      55.9000     0.0199243
      56.0000     0.0196131
      56.1000     0.0193024
      56.2000     0.0189924
      56.3000     0.0186870
      56.4000     0.0183854
      56.5000     0.0180881
      56.6000     0.0177953
      56.7000     0.0175069
      56.8000     0.0172221
      56.9000     0.0169420
      57.0000     0.0166726
      57.1000     0.0164112
      57.2000     0.0161534
      57.3000     0.0158990
      57.4000     0.0156480
      57.5000     0.0154004
      57.6000     0.0151563
      57.7000     0.0149154
      57.8000     0.0146784
      57.9000     0.0144452
      58.0000     0.0142152
      58.1000     0.0139878
      58.2000     0.0137638
      58.3000     0.0135430
      58.4000     0.0133252
      58.5000     0.0131106
      58.6000     0.0128995
      58.7000     0.0126913
      58.8000     0.0124859
      58.9000     0.0122833
      59.0000     0.0120837
      59.1000     0.0118869
      59.2000     0.0116930
      59.3000     0.0115021
      59.4000     0.0113139
      59.5000     0.0111285
      59.6000     0.0109458
      59.7000     0.0107657
      59.8000     0.0105881
      59.9000     0.0104130
      60.0000     0.0102408
      60.1000     0.0100711
      60.2000    0.00990389
      60.3000    0.00973920
      60.4000    0.00957706
      60.5000    0.00941746
      60.6000    0.00925999
      60.7000    0.00910465
      60.8000    0.00895154
      60.9000    0.00880053
      61.0000    0.00865192
      61.1000    0.00850578
      61.2000    0.00836186
      61.3000    0.00822008
      61.4000    0.00808045
      61.5000    0.00794295
      61.6000    0.00780741
      61.7000    0.00767432
      61.8000    0.00754555
      61.9000    0.00741955
      62.0000    0.00729542
      62.1000    0.00717313
      62.2000    0.00705289
      62.3000    0.00693446
      62.4000    0.00681770
      62.5000    0.00670264
      62.6000    0.00658933
      62.7000    0.00647814
      62.8000    0.00637369
      62.9000    0.00627091
      63.0000    0.00616970
      63.1000    0.00606996
      63.2000    0.00597160
      63.3000    0.00587459
      63.4000    0.00577905
      63.5000    0.00568502
      63.6000    0.00559229
      63.7000    0.00550089
      63.8000    0.00541093
      63.9000    0.00532238
      64.0000    0.00523512
      64.1000    0.00514916
      64.2000    0.00506460
      64.3000    0.00498135
      64.4000    0.00489926
      64.5000    0.00481829
      64.6000    0.00473848
      64.7000    0.00465983
      64.8000    0.00458235
      64.9000    0.00450602
      65.0000    0.00443092
      65.1000    0.00435713
      65.2000    0.00428450
      65.3000    0.00421289
      65.4000    0.00414232
      65.5000    0.00407276
      65.6000    0.00400419
      65.7000    0.00393669
      65.8000    0.00387028
      65.9000    0.00380498
      66.0000    0.00374078
      66.1000    0.00367761
      66.2000    0.00361538
      66.3000    0.00355408
      66.4000    0.00349371
      66.5000    0.00343421
      66.6000    0.00337558
      66.7000    0.00331788
      66.8000    0.00326117
      66.9000    0.00320575
      67.0000    0.00315153
      67.1000    0.00309818
      67.2000    0.00304566
      67.3000    0.00299399
      67.4000    0.00294309
      67.5000    0.00289294
      67.6000    0.00284357
      67.7000    0.00279499
      67.8000    0.00274710
      67.9000    0.00269979
      68.0000    0.00265320
      68.1000    0.00260743
      68.2000    0.00256238
      68.3000    0.00251805
      68.4000    0.00247443
      68.5000    0.00243152
      68.6000    0.00238931
      68.7000    0.00234779
      68.8000    0.00230692
      68.9000    0.00226728
      69.0000    0.00223144
      69.1000    0.00219907
      69.2000    0.00216768
      69.3000    0.00213711
      69.4000    0.00210774
      69.5000    0.00207783
      69.6000    0.00204704
      69.7000    0.00201751
      69.8000    0.00198941
      69.9000    0.00196169
      70.0000    0.00193428
      70.1000    0.00190668
      70.2000    0.00188043
      70.3000    0.00185554
      70.4000    0.00183075
      70.5000    0.00180659
      70.6000    0.00178304
      70.7000    0.00175981
      70.8000    0.00173683
      70.9000    0.00171332
      71.0000    0.00168936
      71.1000    0.00166651
      71.2000    0.00164475
      71.3000    0.00162171
      71.4000    0.00159709
      71.5000    0.00157440
      71.6000    0.00155452
      71.7000    0.00153450
      71.8000    0.00151385
      71.9000    0.00149390
      72.0000    0.00147545
