Filter Ti-poly
observation_date 2019-09-22 22:40:45
wavelength effective area
      1.00000   2.76776e-10
      1.10000   7.88640e-10
      1.20000   2.04569e-09
      1.30000   4.87935e-09
      1.40000   1.10400e-08
      1.50000   2.34773e-08
      1.60000   4.73589e-08
      1.70000   9.15822e-08
      1.80000   1.69778e-07
      1.90000   3.03743e-07
      2.00000   5.25456e-07
      2.10000   8.82863e-07
      2.20000   1.44763e-06
      2.30000   2.31340e-06
      2.40000   3.60955e-06
      2.50000   5.78539e-06
      2.60000   8.95670e-06
      2.70000   1.33532e-05
      2.80000   1.95272e-05
      2.90000   2.82624e-05
      3.00000   4.02674e-05
      3.10000   5.66348e-05
      3.20000   7.87861e-05
      3.30000   0.000108488
      3.40000   0.000147832
      3.50000   0.000199496
      3.60000   0.000267981
      3.70000   0.000356157
      3.80000   0.000471392
      3.90000   0.000620457
      4.00000   0.000811588
      4.10000    0.00105669
      4.20000    0.00137092
      4.30000    0.00177355
      4.40000    0.00228835
      4.50000    0.00294450
      4.60000    0.00377613
      4.70000    0.00484254
      4.80000    0.00620384
      4.90000    0.00784572
      5.00000     0.0101835
      5.10000     0.0130317
      5.20000     0.0167262
      5.30000     0.0212867
      5.40000     0.0270474
      5.50000     0.0344276
      5.60000     0.0424779
      5.70000     0.0552162
      5.80000     0.0647328
      5.90000     0.0988369
      6.00000      0.132861
      6.10000      0.169808
      6.20000      0.208523
      6.30000      0.245446
      6.40000      0.277128
      6.50000      0.300452
      6.60000      0.311002
      6.70000      0.320700
      6.80000      0.321128
      6.90000      0.421297
      7.00000      0.458155
      7.10000      0.484535
      7.20000      0.505486
      7.30000      0.522568
      7.40000      0.535601
      7.50000      0.545967
      7.60000      0.553777
      7.70000      0.557564
      7.80000      0.556249
      7.90000      0.555594
      8.00000      0.803253
      8.10000      0.879011
      8.20000      0.892962
      8.30000      0.902825
      8.40000      0.909211
      8.50000      0.914147
      8.60000      0.917355
      8.70000      0.919436
      8.80000      0.920091
      8.90000      0.919783
      9.00000      0.918448
      9.10000      0.916138
      9.20000      0.913033
      9.30000      0.909055
      9.40000      0.904348
      9.50000      0.898970
      9.60000      0.892874
      9.70000      0.886167
      9.80000      0.878998
      9.90000      0.871393
      10.0000      0.863416
      10.1000      0.855075
      10.2000      0.846397
      10.3000      0.837327
      10.4000      0.827894
      10.5000      0.818120
      10.6000      0.808047
      10.7000      0.797697
      10.8000      0.787082
      10.9000      0.776233
      11.0000      0.765164
      11.1000      0.753909
      11.2000      0.742473
      11.3000      0.730889
      11.4000      0.719152
      11.5000      0.707265
      11.6000      0.695247
      11.7000      0.683046
      11.8000      0.670742
      11.9000      0.658254
      12.0000      0.644904
      12.1000      0.633904
      12.2000      0.634003
      12.3000      0.627397
      12.4000      0.616156
      12.5000      0.604532
      12.6000      0.592773
      12.7000      0.580977
      12.8000      0.569182
      12.9000      0.557399
      13.0000      0.545670
      13.1000      0.534026
      13.2000      0.522482
      13.3000      0.511053
      13.4000      0.499755
      13.5000      0.488719
      13.6000      0.477921
      13.7000      0.467248
      13.8000      0.456696
      13.9000      0.446286
      14.0000      0.436015
      14.1000      0.425869
      14.2000      0.415849
      14.3000      0.405953
      14.4000      0.396170
      14.5000      0.386514
      14.6000      0.376987
      14.7000      0.367579
      14.8000      0.358296
      14.9000      0.349138
      15.0000      0.340110
      15.1000      0.331218
      15.2000      0.322487
      15.3000      0.313899
      15.4000      0.305450
      15.5000      0.297141
      15.6000      0.288991
      15.7000      0.280996
      15.8000      0.273193
      15.9000      0.265553
      16.0000      0.258074
      16.1000      0.250757
      16.2000      0.243642
      16.3000      0.236677
      16.4000      0.229850
      16.5000      0.223155
      16.6000      0.216608
      16.7000      0.210211
      16.8000      0.203938
      16.9000      0.197785
      17.0000      0.191776
      17.1000      0.185911
      17.2000      0.180158
      17.3000      0.174525
      17.4000      0.169138
      17.5000      0.163959
      17.6000      0.158962
      17.7000      0.154175
      17.8000      0.149685
      17.9000      0.145294
      18.0000      0.140971
      18.1000      0.136760
      18.2000      0.132589
      18.3000      0.128450
      18.4000      0.124336
      18.5000      0.120256
      18.6000      0.116196
      18.7000      0.112141
      18.8000      0.108198
      18.9000      0.104336
      19.0000      0.100592
      19.1000     0.0969685
      19.2000     0.0934337
      19.3000     0.0900400
      19.4000     0.0867597
      19.5000     0.0835646
      19.6000     0.0805308
      19.7000     0.0775813
      19.8000     0.0747079
      19.9000     0.0719764
      20.0000     0.0693038
      20.1000     0.0667113
      20.2000     0.0642064
      20.3000     0.0617522
      20.4000     0.0593937
      20.5000     0.0570933
      20.6000     0.0548458
      20.7000     0.0526908
      20.8000     0.0505763
      20.9000     0.0485343
      21.0000     0.0466471
      21.1000     0.0448794
      21.2000     0.0434669
      21.3000     0.0421571
      21.4000     0.0410685
      21.5000     0.0402296
      21.6000     0.0396420
      21.7000     0.0390255
      21.8000     0.0383991
      21.9000     0.0376921
      22.0000     0.0369365
      22.1000     0.0360602
      22.2000     0.0349691
      22.3000     0.0336932
      22.4000     0.0317377
      22.5000     0.0295760
      22.6000     0.0249095
      22.7000     0.0220883
      22.8000     0.0282763
      22.9000     0.0359244
      23.0000     0.0451323
      23.1000     0.0506655
      23.2000     0.0528339
      23.3000     0.0526588
      23.4000     0.0513237
      23.5000     0.0499577
      23.6000     0.0485892
      23.7000     0.0471370
      23.8000     0.0456857
      23.9000     0.0442726
      24.0000     0.0428685
      24.1000     0.0414855
      24.2000     0.0401192
      24.3000     0.0387986
      24.4000     0.0374958
      24.5000     0.0362308
      24.6000     0.0349889
      24.7000     0.0337904
      24.8000     0.0326151
      24.9000     0.0314785
      25.0000     0.0303668
      25.1000     0.0292951
      25.2000     0.0282466
      25.3000     0.0272357
      25.4000     0.0262476
      25.5000     0.0252987
      25.6000     0.0243704
      25.7000     0.0234817
      25.8000     0.0226099
      25.9000     0.0217780
      26.0000     0.0209590
      26.1000     0.0201804
      26.2000     0.0194106
      26.3000     0.0186840
      26.4000     0.0179617
      26.5000     0.0172834
      26.6000     0.0166086
      26.7000     0.0159733
      26.8000     0.0153463
      26.9000     0.0147500
      27.0000     0.0141653
      27.1000     0.0136027
      27.2000     0.0130552
      27.3000     0.0562831
      27.4000      0.154004
      27.5000      0.225105
      27.6000      0.221412
      27.7000      0.217730
      27.8000      0.213972
      27.9000      0.210231
      28.0000      0.206563
      28.1000      0.202921
      28.2000      0.199340
      28.3000      0.195801
      28.4000      0.192306
      28.5000      0.188875
      28.6000      0.185468
      28.7000      0.182169
      28.8000      0.178887
      28.9000      0.175672
      29.0000      0.172487
      29.1000      0.169348
      29.2000      0.166256
      29.3000      0.163189
      29.4000      0.160194
      29.5000      0.157214
      29.6000      0.154300
      29.7000      0.151413
      29.8000      0.148569
      29.9000      0.145776
      30.0000      0.143000
      30.1000      0.140298
      30.2000      0.137611
      30.3000      0.140281
      30.4000      0.145991
      30.5000      0.149885
      30.6000      0.147145
      30.7000      0.144420
      30.8000      0.141758
      30.9000      0.139123
      31.0000      0.136523
      31.1000      0.133982
      31.2000      0.131455
      31.3000      0.128991
      31.4000      0.126552
      31.5000      0.124149
      31.6000      0.121808
      31.7000      0.119481
      31.8000      0.117208
      31.9000      0.114959
      32.0000      0.112720
      32.1000      0.110489
      32.2000      0.108270
      32.3000      0.106106
      32.4000      0.103973
      32.5000      0.101861
      32.6000     0.0998348
      32.7000     0.0978198
      32.8000     0.0958455
      32.9000     0.0939110
      33.0000     0.0919879
      33.1000     0.0901779
      33.2000     0.0883910
      33.3000     0.0866261
      33.4000     0.0849106
      33.5000     0.0832061
      33.6000     0.0815416
      33.7000     0.0799083
      33.8000     0.0782840
      33.9000     0.0767127
      34.0000     0.0751565
      34.1000     0.0736275
      34.2000     0.0721420
      34.3000     0.0706645
      34.4000     0.0692153
      34.5000     0.0678007
      34.6000     0.0663937
      34.7000     0.0650179
      34.8000     0.0636610
      34.9000     0.0623112
      35.0000     0.0610106
      35.1000     0.0597215
      35.2000     0.0584475
      35.3000     0.0572503
      35.4000     0.0560597
      35.5000     0.0548870
      35.6000     0.0537498
      35.7000     0.0526187
      35.8000     0.0515112
      35.9000     0.0504319
      36.0000     0.0493583
      36.1000     0.0483129
      36.2000     0.0472897
      36.3000     0.0462719
      36.4000     0.0452852
      36.5000     0.0443155
      36.6000     0.0433509
      36.7000     0.0424199
      36.8000     0.0415022
      36.9000     0.0405894
      37.0000     0.0397112
      37.1000     0.0388435
      37.2000     0.0379803
      37.3000     0.0371523
      37.4000     0.0363329
      37.5000     0.0355177
      37.6000     0.0347368
      37.7000     0.0339634
      37.8000     0.0331941
      37.9000     0.0324577
      38.0000     0.0317289
      38.1000     0.0310039
      38.2000     0.0303094
      38.3000     0.0296231
      38.4000     0.0289404
      38.5000     0.0282854
      38.6000     0.0276398
      38.7000     0.0269977
      38.8000     0.0263799
      38.9000     0.0257733
      39.0000     0.0251699
      39.1000     0.0245871
      39.2000     0.0240178
      39.3000     0.0234516
      39.4000     0.0229015
      39.5000     0.0223678
      39.6000     0.0218370
      39.7000     0.0213178
      39.8000     0.0208182
      39.9000     0.0203214
      40.0000     0.0198312
      40.1000     0.0193647
      40.2000     0.0189007
      40.3000     0.0184393
      40.4000     0.0180023
      40.5000     0.0175689
      40.6000     0.0171378
      40.7000     0.0167251
      40.8000     0.0163206
      40.9000     0.0159184
      41.0000     0.0155282
      41.1000     0.0151512
      41.2000     0.0147763
      41.3000     0.0144074
      41.4000     0.0140570
      41.5000     0.0137085
      41.6000     0.0133620
      41.7000     0.0130338
      41.8000     0.0127097
      41.9000     0.0123875
      42.0000     0.0120771
      42.1000     0.0117765
      42.2000     0.0114776
      42.3000     0.0111833
      42.4000     0.0109047
      42.5000     0.0106275
      42.6000     0.0103519
      42.7000     0.0100903
      42.8000    0.00983343
      42.9000    0.00957801
      43.0000    0.00932971
      43.1000    0.00909220
      43.2000    0.00885600
      43.3000    0.00862118
      43.4000     0.0262970
      43.5000     0.0496371
      43.6000     0.0784413
      43.7000      0.100142
      43.8000      0.104908
      43.9000      0.103482
      44.0000      0.102060
      44.1000      0.100683
      44.2000     0.0993112
      44.3000     0.0979429
      44.4000     0.0965956
      44.5000     0.0952749
      44.6000     0.0939576
      44.7000     0.0926436
      44.8000     0.0913718
      44.9000     0.0901086
      45.0000     0.0888487
      45.1000     0.0876036
      45.2000     0.0863895
      45.3000     0.0851785
      45.4000     0.0839705
      45.5000     0.0827923
      45.6000     0.0816295
      45.7000     0.0804697
      45.8000     0.0793142
      45.9000     0.0781982
      46.0000     0.0770849
      46.1000     0.0759745
      46.2000     0.0749141
      46.3000     0.0739374
      46.4000     0.0729633
      46.5000     0.0719916
      46.6000     0.0710552
      46.7000     0.0701373
      46.8000     0.0692218
      46.9000     0.0683086
      47.0000     0.0674437
      47.1000     0.0665839
      47.2000     0.0657263
      47.3000     0.0648765
      47.4000     0.0640545
      47.5000     0.0632345
      47.6000     0.0624167
      47.7000     0.0616146
      47.8000     0.0608363
      47.9000     0.0600598
      48.0000     0.0592854
      48.1000     0.0585283
      48.2000     0.0577850
      48.3000     0.0570436
      48.4000     0.0563041
      48.5000     0.0555911
      48.6000     0.0548897
      48.7000     0.0541900
      48.8000     0.0534921
      48.9000     0.0528174
      49.0000     0.0521486
      49.1000     0.0514815
      49.2000     0.0508161
      49.3000     0.0501734
      49.4000     0.0495339
      49.5000     0.0488961
      49.6000     0.0482598
      49.7000     0.0476462
      49.8000     0.0470347
      49.9000     0.0464247
      50.0000     0.0458169
      50.1000     0.0452278
      50.2000     0.0446523
      50.3000     0.0440835
      50.4000     0.0435209
      50.5000     0.0429643
      50.6000     0.0424143
      50.7000     0.0418708
      50.8000     0.0413334
      50.9000     0.0408026
      51.0000     0.0402783
      51.1000     0.0397604
      51.2000     0.0392483
      51.3000     0.0387429
      51.4000     0.0382443
      51.5000     0.0377500
      51.6000     0.0372611
      51.7000     0.0367772
      51.8000     0.0362939
      51.9000     0.0358158
      52.0000     0.0353428
      52.1000     0.0348754
      52.2000     0.0344130
      52.3000     0.0339553
      52.4000     0.0335045
      52.5000     0.0330588
      52.6000     0.0326078
      52.7000     0.0321516
      52.8000     0.0317004
      52.9000     0.0312554
      53.0000     0.0308163
      53.1000     0.0303820
      53.2000     0.0299537
      53.3000     0.0295305
      53.4000     0.0291120
      53.5000     0.0286990
      53.6000     0.0282912
      53.7000     0.0278879
      53.8000     0.0274898
      53.9000     0.0270965
      54.0000     0.0267086
      54.1000     0.0263267
      54.2000     0.0259491
      54.3000     0.0255754
      54.4000     0.0252066
      54.5000     0.0248422
      54.6000     0.0244826
      54.7000     0.0241286
      54.8000     0.0237792
      54.9000     0.0234339
      55.0000     0.0230929
      55.1000     0.0227556
      55.2000     0.0224122
      55.3000     0.0220648
      55.4000     0.0217220
      55.5000     0.0213833
      55.6000     0.0210493
      55.7000     0.0207200
      55.8000     0.0203947
      55.9000     0.0200744
      56.0000     0.0197615
      56.1000     0.0194491
      56.2000     0.0191374
      56.3000     0.0188303
      56.4000     0.0185272
      56.5000     0.0182282
      56.6000     0.0179339
      56.7000     0.0176438
      56.8000     0.0173575
      56.9000     0.0170758
      57.0000     0.0168050
      57.1000     0.0165422
      57.2000     0.0162830
      57.3000     0.0160273
      57.4000     0.0157749
      57.5000     0.0155260
      57.6000     0.0152804
      57.7000     0.0150382
      57.8000     0.0147999
      57.9000     0.0145653
      58.0000     0.0143339
      58.1000     0.0141052
      58.2000     0.0138799
      58.3000     0.0136577
      58.4000     0.0134385
      58.5000     0.0132226
      58.6000     0.0130102
      58.7000     0.0128007
      58.8000     0.0125940
      58.9000     0.0123902
      59.0000     0.0121893
      59.1000     0.0119913
      59.2000     0.0117962
      59.3000     0.0116041
      59.4000     0.0114148
      59.5000     0.0112282
      59.6000     0.0110444
      59.7000     0.0108631
      59.8000     0.0106844
      59.9000     0.0105082
      60.0000     0.0103349
      60.1000     0.0101641
      60.2000    0.00999576
      60.3000    0.00982997
      60.4000    0.00966674
      60.5000    0.00950604
      60.6000    0.00934748
      60.7000    0.00919105
      60.8000    0.00903686
      60.9000    0.00888477
      61.0000    0.00873510
      61.1000    0.00858791
      61.2000    0.00844294
      61.3000    0.00830013
      61.4000    0.00815949
      61.5000    0.00802099
      61.6000    0.00788447
      61.7000    0.00775041
      61.8000    0.00762072
      61.9000    0.00749381
      62.0000    0.00736878
      62.1000    0.00724561
      62.2000    0.00712449
      62.3000    0.00700519
      62.4000    0.00688757
      62.5000    0.00677166
      62.6000    0.00665749
      62.7000    0.00654546
      62.8000    0.00644023
      62.9000    0.00633668
      63.0000    0.00623469
      63.1000    0.00613419
      63.2000    0.00603506
      63.3000    0.00593730
      63.4000    0.00584101
      63.5000    0.00574623
      63.6000    0.00565276
      63.7000    0.00556063
      63.8000    0.00546995
      63.9000    0.00538068
      64.0000    0.00529271
      64.1000    0.00520606
      64.2000    0.00512080
      64.3000    0.00503687
      64.4000    0.00495411
      64.5000    0.00487247
      64.6000    0.00479200
      64.7000    0.00471270
      64.8000    0.00463456
      64.9000    0.00455759
      65.0000    0.00448185
      65.1000    0.00440743
      65.2000    0.00433417
      65.3000    0.00426195
      65.4000    0.00419075
      65.5000    0.00412059
      65.6000    0.00405141
      65.7000    0.00398331
      65.8000    0.00391631
      65.9000    0.00385043
      66.0000    0.00378564
      66.1000    0.00372190
      66.2000    0.00365910
      66.3000    0.00359725
      66.4000    0.00353632
      66.5000    0.00347628
      66.6000    0.00341711
      66.7000    0.00335888
      66.8000    0.00330164
      66.9000    0.00324570
      67.0000    0.00319096
      67.1000    0.00313710
      67.2000    0.00308407
      67.3000    0.00303189
      67.4000    0.00298049
      67.5000    0.00292985
      67.6000    0.00287999
      67.7000    0.00283092
      67.8000    0.00278256
      67.9000    0.00273476
      68.0000    0.00268769
      68.1000    0.00264143
      68.2000    0.00259590
      68.3000    0.00255110
      68.4000    0.00250701
      68.5000    0.00246363
      68.6000    0.00242097
      68.7000    0.00237899
      68.8000    0.00233768
      68.9000    0.00229761
      69.0000    0.00226138
      69.1000    0.00222867
      69.2000    0.00219695
      69.3000    0.00216605
      69.4000    0.00213638
      69.5000    0.00210616
      69.6000    0.00207504
      69.7000    0.00204520
      69.8000    0.00201680
      69.9000    0.00198880
      70.0000    0.00196110
      70.1000    0.00193321
      70.2000    0.00190669
      70.3000    0.00188155
      70.4000    0.00185649
      70.5000    0.00183209
      70.6000    0.00180829
      70.7000    0.00178481
      70.8000    0.00176159
      70.9000    0.00173783
      71.0000    0.00171361
      71.1000    0.00169051
      71.2000    0.00166851
      71.3000    0.00164521
      71.4000    0.00162030
      71.5000    0.00159735
      71.6000    0.00157724
      71.7000    0.00155700
      71.8000    0.00153610
      71.9000    0.00151593
      72.0000    0.00149727
