Filter Ti-poly
observation_date 2024-01-07 05:00:00
wavelength effective area
      1.00000   2.76775e-10
      1.10000   7.88636e-10
      1.20000   2.04567e-09
      1.30000   4.87931e-09
      1.40000   1.10399e-08
      1.50000   2.34770e-08
      1.60000   4.73581e-08
      1.70000   9.15803e-08
      1.80000   1.69774e-07
      1.90000   3.03734e-07
      2.00000   5.25437e-07
      2.10000   8.82827e-07
      2.20000   1.44756e-06
      2.30000   2.31327e-06
      2.40000   3.60933e-06
      2.50000   5.78499e-06
      2.60000   8.95600e-06
      2.70000   1.33520e-05
      2.80000   1.95252e-05
      2.90000   2.82594e-05
      3.00000   4.02625e-05
      3.10000   5.66272e-05
      3.20000   7.87745e-05
      3.30000   0.000108470
      3.40000   0.000147805
      3.50000   0.000199458
      3.60000   0.000267925
      3.70000   0.000356076
      3.80000   0.000471276
      3.90000   0.000620292
      4.00000   0.000811354
      4.10000    0.00105636
      4.20000    0.00137046
      4.30000    0.00177292
      4.40000    0.00228748
      4.50000    0.00294330
      4.60000    0.00377449
      4.70000    0.00484029
      4.80000    0.00620078
      4.90000    0.00784161
      5.00000     0.0101779
      5.10000     0.0130240
      5.20000     0.0167157
      5.30000     0.0212726
      5.40000     0.0270285
      5.50000     0.0344023
      5.60000     0.0424450
      5.70000     0.0551712
      5.80000     0.0646773
      5.90000     0.0987479
      6.00000      0.132736
      6.10000      0.169640
      6.20000      0.208306
      6.30000      0.245179
      6.40000      0.276813
      6.50000      0.300094
      6.60000      0.310615
      6.70000      0.320283
      6.80000      0.320692
      6.90000      0.420701
      7.00000      0.457479
      7.10000      0.483790
      7.20000      0.504677
      7.30000      0.521698
      7.40000      0.534674
      7.50000      0.544986
      7.60000      0.552743
      7.70000      0.556483
      7.80000      0.555130
      7.90000      0.554436
      8.00000      0.801517
      8.10000      0.877042
      8.20000      0.890891
      8.30000      0.900658
      8.40000      0.906953
      8.50000      0.911800
      8.60000      0.914921
      8.70000      0.916916
      8.80000      0.917485
      8.90000      0.917094
      9.00000      0.915678
      9.10000      0.913287
      9.20000      0.910103
      9.30000      0.906047
      9.40000      0.901264
      9.50000      0.895812
      9.60000      0.889644
      9.70000      0.882866
      9.80000      0.875628
      9.90000      0.867956
      10.0000      0.859913
      10.1000      0.851510
      10.2000      0.842770
      10.3000      0.833641
      10.4000      0.824150
      10.5000      0.814322
      10.6000      0.804196
      10.7000      0.793795
      10.8000      0.783132
      10.9000      0.772237
      11.0000      0.761124
      11.1000      0.749827
      11.2000      0.738352
      11.3000      0.726731
      11.4000      0.714961
      11.5000      0.703043
      11.6000      0.690996
      11.7000      0.678769
      11.8000      0.666442
      11.9000      0.653936
      12.0000      0.640575
      12.1000      0.629552
      12.2000      0.629552
      12.3000      0.622894
      12.4000      0.611634
      12.5000      0.599998
      12.6000      0.588229
      12.7000      0.576427
      12.8000      0.564628
      12.9000      0.552844
      13.0000      0.541116
      13.1000      0.529475
      13.2000      0.517937
      13.3000      0.506516
      13.4000      0.495228
      13.5000      0.484203
      13.6000      0.473417
      13.7000      0.462758
      13.8000      0.452222
      13.9000      0.441830
      14.0000      0.431577
      14.1000      0.421452
      14.2000      0.411454
      14.3000      0.401582
      14.4000      0.391825
      14.5000      0.382196
      14.6000      0.372697
      14.7000      0.363319
      14.8000      0.354068
      14.9000      0.344943
      15.0000      0.335950
      15.1000      0.327094
      15.2000      0.318400
      15.3000      0.309850
      15.4000      0.301440
      15.5000      0.293173
      15.6000      0.285064
      15.7000      0.277111
      15.8000      0.269352
      15.9000      0.261757
      16.0000      0.254322
      16.1000      0.247051
      16.2000      0.239981
      16.3000      0.233063
      16.4000      0.226282
      16.5000      0.219636
      16.6000      0.213137
      16.7000      0.206789
      16.8000      0.200565
      16.9000      0.194462
      17.0000      0.188504
      17.1000      0.182689
      17.2000      0.176987
      17.3000      0.171406
      17.4000      0.166070
      17.5000      0.160942
      17.6000      0.155995
      17.7000      0.151258
      17.8000      0.146814
      17.9000      0.142472
      18.0000      0.138196
      18.1000      0.134032
      18.2000      0.129910
      18.3000      0.125820
      18.4000      0.121757
      18.5000      0.117728
      18.6000      0.113720
      18.7000      0.109719
      18.8000      0.105829
      18.9000      0.102022
      19.0000     0.0983298
      19.1000     0.0947591
      19.2000     0.0912767
      19.3000     0.0879340
      19.4000     0.0847041
      19.5000     0.0815590
      19.6000     0.0785734
      19.7000     0.0756717
      19.8000     0.0728458
      19.9000     0.0701601
      20.0000     0.0675332
      20.1000     0.0649858
      20.2000     0.0625254
      20.3000     0.0601158
      20.4000     0.0578006
      20.5000     0.0555434
      20.6000     0.0533390
      20.7000     0.0512259
      20.8000     0.0491535
      20.9000     0.0471527
      21.0000     0.0453036
      21.1000     0.0435717
      21.2000     0.0421855
      21.3000     0.0408999
      21.4000     0.0398296
      21.5000     0.0390020
      21.6000     0.0384186
      21.7000     0.0378073
      21.8000     0.0371868
      21.9000     0.0364886
      22.0000     0.0357438
      22.1000     0.0348828
      22.2000     0.0338144
      22.3000     0.0325683
      22.4000     0.0306662
      22.5000     0.0285665
      22.6000     0.0240500
      22.7000     0.0213683
      22.8000     0.0274749
      22.9000     0.0349666
      23.0000     0.0439574
      23.1000     0.0493364
      23.2000     0.0514330
      23.3000     0.0512474
      23.4000     0.0499333
      23.5000     0.0485898
      23.6000     0.0472447
      23.7000     0.0458188
      23.8000     0.0443946
      23.9000     0.0430084
      24.0000     0.0416315
      24.1000     0.0402759
      24.2000     0.0389373
      24.3000     0.0376438
      24.4000     0.0363683
      24.5000     0.0351303
      24.6000     0.0339152
      24.7000     0.0327430
      24.8000     0.0315939
      24.9000     0.0304830
      25.0000     0.0293968
      25.1000     0.0283500
      25.2000     0.0273263
      25.3000     0.0263395
      25.4000     0.0253754
      25.5000     0.0244498
      25.6000     0.0235448
      25.7000     0.0226785
      25.8000     0.0218292
      25.9000     0.0210189
      26.0000     0.0202216
      26.1000     0.0194636
      26.2000     0.0187147
      26.3000     0.0180080
      26.4000     0.0173058
      26.5000     0.0166464
      26.6000     0.0159909
      26.7000     0.0153738
      26.8000     0.0147650
      26.9000     0.0141863
      27.0000     0.0136190
      27.1000     0.0130733
      27.2000     0.0125425
      27.3000     0.0540532
      27.4000      0.147848
      27.5000      0.216027
      27.6000      0.212403
      27.7000      0.208793
      27.8000      0.205112
      27.9000      0.201451
      28.0000      0.197860
      28.1000      0.194297
      28.2000      0.190795
      28.3000      0.187336
      28.4000      0.183921
      28.5000      0.180568
      28.6000      0.177241
      28.7000      0.174020
      28.8000      0.170817
      28.9000      0.167681
      29.0000      0.164575
      29.1000      0.161514
      29.2000      0.158501
      29.3000      0.155514
      29.4000      0.152597
      29.5000      0.149697
      29.6000      0.146862
      29.7000      0.144054
      29.8000      0.141290
      29.9000      0.138575
      30.0000      0.135880
      30.1000      0.133256
      30.2000      0.130648
      30.3000      0.133126
      30.4000      0.138485
      30.5000      0.142118
      30.6000      0.139459
      30.7000      0.136817
      30.8000      0.134236
      30.9000      0.131683
      31.0000      0.129165
      31.1000      0.126704
      31.2000      0.124259
      31.3000      0.121875
      31.4000      0.119517
      31.5000      0.117195
      31.6000      0.114933
      31.7000      0.112685
      31.8000      0.110491
      31.9000      0.108320
      32.0000      0.106162
      32.1000      0.104012
      32.2000      0.101876
      32.3000     0.0997928
      32.4000     0.0977403
      32.5000     0.0957103
      32.6000     0.0937631
      32.7000     0.0918285
      32.8000     0.0899336
      32.9000     0.0880776
      33.0000     0.0862339
      33.1000     0.0845002
      33.2000     0.0827895
      33.3000     0.0811008
      33.4000     0.0794595
      33.5000     0.0778299
      33.6000     0.0762390
      33.7000     0.0746786
      33.8000     0.0731279
      33.9000     0.0716279
      34.0000     0.0701432
      34.1000     0.0686851
      34.2000     0.0672687
      34.3000     0.0658608
      34.4000     0.0644806
      34.5000     0.0631338
      34.6000     0.0617952
      34.7000     0.0604866
      34.8000     0.0591968
      34.9000     0.0579146
      35.0000     0.0566793
      35.1000     0.0554558
      35.2000     0.0542472
      35.3000     0.0531109
      35.4000     0.0519817
      35.5000     0.0508700
      35.6000     0.0497923
      35.7000     0.0487211
      35.8000     0.0476727
      35.9000     0.0466514
      36.0000     0.0456363
      36.1000     0.0446480
      36.2000     0.0436810
      36.3000     0.0427199
      36.4000     0.0417885
      36.5000     0.0408735
      36.6000     0.0399641
      36.7000     0.0390865
      36.8000     0.0382219
      36.9000     0.0373625
      37.0000     0.0365358
      37.1000     0.0357196
      37.2000     0.0349083
      37.3000     0.0341299
      37.4000     0.0333603
      37.5000     0.0325952
      37.6000     0.0318621
      37.7000     0.0311368
      37.8000     0.0304159
      37.9000     0.0297258
      38.0000     0.0290434
      38.1000     0.0283650
      38.2000     0.0277152
      38.3000     0.0270735
      38.4000     0.0264356
      38.5000     0.0258237
      38.6000     0.0252211
      38.7000     0.0246221
      38.8000     0.0240458
      38.9000     0.0234805
      39.0000     0.0229185
      39.1000     0.0223758
      39.2000     0.0218460
      39.3000     0.0213194
      39.4000     0.0208081
      39.5000     0.0203122
      39.6000     0.0198194
      39.7000     0.0193376
      39.8000     0.0188741
      39.9000     0.0184135
      40.0000     0.0179595
      40.1000     0.0175272
      40.2000     0.0170978
      40.3000     0.0166711
      40.4000     0.0162670
      40.5000     0.0158665
      40.6000     0.0154685
      40.7000     0.0150874
      40.8000     0.0147143
      40.9000     0.0143436
      41.0000     0.0139840
      41.1000     0.0136367
      41.2000     0.0132916
      41.3000     0.0129524
      41.4000     0.0126302
      41.5000     0.0123099
      41.6000     0.0119918
      41.7000     0.0116905
      41.8000     0.0113932
      41.9000     0.0110978
      42.0000     0.0108134
      42.1000     0.0105381
      42.2000     0.0102646
      42.3000    0.00999555
      42.4000    0.00974069
      42.5000    0.00948744
      42.6000    0.00923590
      42.7000    0.00899711
      42.8000    0.00876285
      42.9000    0.00853011
      43.0000    0.00830397
      43.1000    0.00808769
      43.2000    0.00787282
      43.3000    0.00765942
      43.4000     0.0233491
      43.5000     0.0455133
      43.6000     0.0744382
      43.7000     0.0978585
      43.8000      0.104160
      43.9000      0.102739
      44.0000      0.101322
      44.1000     0.0999502
      44.2000     0.0985833
      44.3000     0.0972202
      44.4000     0.0958780
      44.5000     0.0945624
      44.6000     0.0932501
      44.7000     0.0919414
      44.8000     0.0906746
      44.9000     0.0894163
      45.0000     0.0881615
      45.1000     0.0869215
      45.2000     0.0857124
      45.3000     0.0845065
      45.4000     0.0833037
      45.5000     0.0821306
      45.6000     0.0809728
      45.7000     0.0798181
      45.8000     0.0786679
      45.9000     0.0775568
      46.0000     0.0764485
      46.1000     0.0753431
      46.2000     0.0742874
      46.3000     0.0733148
      46.4000     0.0723448
      46.5000     0.0713774
      46.6000     0.0704451
      46.7000     0.0695312
      46.8000     0.0686199
      46.9000     0.0677109
      47.0000     0.0668498
      47.1000     0.0659939
      47.2000     0.0651402
      47.3000     0.0642943
      47.4000     0.0634761
      47.5000     0.0626599
      47.6000     0.0618459
      47.7000     0.0610475
      47.8000     0.0602728
      47.9000     0.0595000
      48.0000     0.0587294
      48.1000     0.0579761
      48.2000     0.0572363
      48.3000     0.0564985
      48.4000     0.0557627
      48.5000     0.0550533
      48.6000     0.0543553
      48.7000     0.0536592
      48.8000     0.0529648
      48.9000     0.0522936
      49.0000     0.0516283
      49.1000     0.0509648
      49.2000     0.0503031
      49.3000     0.0496637
      49.4000     0.0490278
      49.5000     0.0483934
      49.6000     0.0477607
      49.7000     0.0471505
      49.8000     0.0465423
      49.9000     0.0459356
      50.0000     0.0453313
      50.1000     0.0447455
      50.2000     0.0441736
      50.3000     0.0436083
      50.4000     0.0430494
      50.5000     0.0424964
      50.6000     0.0419500
      50.7000     0.0414101
      50.8000     0.0408764
      50.9000     0.0403492
      51.0000     0.0398285
      51.1000     0.0393142
      51.2000     0.0388056
      51.3000     0.0383038
      51.4000     0.0378086
      51.5000     0.0373178
      51.6000     0.0368323
      51.7000     0.0363519
      51.8000     0.0358721
      51.9000     0.0353974
      52.0000     0.0349278
      52.1000     0.0344638
      52.2000     0.0340048
      52.3000     0.0335505
      52.4000     0.0331030
      52.5000     0.0326606
      52.6000     0.0322130
      52.7000     0.0317603
      52.8000     0.0313126
      52.9000     0.0308710
      53.0000     0.0304355
      53.1000     0.0300046
      53.2000     0.0295798
      53.3000     0.0291600
      53.4000     0.0287450
      53.5000     0.0283355
      53.6000     0.0279310
      53.7000     0.0275312
      53.8000     0.0271364
      53.9000     0.0267465
      54.0000     0.0263619
      54.1000     0.0259832
      54.2000     0.0256088
      54.3000     0.0252382
      54.4000     0.0248726
      54.5000     0.0245114
      54.6000     0.0241548
      54.7000     0.0238040
      54.8000     0.0234577
      54.9000     0.0231155
      55.0000     0.0227776
      55.1000     0.0224434
      55.2000     0.0221033
      55.3000     0.0217592
      55.4000     0.0214198
      55.5000     0.0210844
      55.6000     0.0207537
      55.7000     0.0204275
      55.8000     0.0201055
      55.9000     0.0197883
      56.0000     0.0194785
      56.1000     0.0191692
      56.2000     0.0188607
      56.3000     0.0185567
      56.4000     0.0182566
      56.5000     0.0179607
      56.6000     0.0176694
      56.7000     0.0173824
      56.8000     0.0170991
      56.9000     0.0168204
      57.0000     0.0165524
      57.1000     0.0162923
      57.2000     0.0160359
      57.3000     0.0157828
      57.4000     0.0155331
      57.5000     0.0152868
      57.6000     0.0150438
      57.7000     0.0148042
      57.8000     0.0145685
      57.9000     0.0143365
      58.0000     0.0141076
      58.1000     0.0138815
      58.2000     0.0136587
      58.3000     0.0134390
      58.4000     0.0132224
      58.5000     0.0130090
      58.6000     0.0127990
      58.7000     0.0125920
      58.8000     0.0123877
      58.9000     0.0121863
      59.0000     0.0119878
      59.1000     0.0117921
      59.2000     0.0115993
      59.3000     0.0114095
      59.4000     0.0112224
      59.5000     0.0110381
      59.6000     0.0108565
      59.7000     0.0106774
      59.8000     0.0105008
      59.9000     0.0103268
      60.0000     0.0101557
      60.1000    0.00998699
      60.2000    0.00982076
      60.3000    0.00965709
      60.4000    0.00949595
      60.5000    0.00933734
      60.6000    0.00918086
      60.7000    0.00902649
      60.8000    0.00887434
      60.9000    0.00872428
      61.0000    0.00857661
      61.1000    0.00843139
      61.2000    0.00828837
      61.3000    0.00814749
      61.4000    0.00800876
      61.5000    0.00787214
      61.6000    0.00773748
      61.7000    0.00760526
      61.8000    0.00747735
      61.9000    0.00735218
      62.0000    0.00722889
      62.1000    0.00710744
      62.2000    0.00698803
      62.3000    0.00687042
      62.4000    0.00675447
      62.5000    0.00664023
      62.6000    0.00652771
      62.7000    0.00641731
      62.8000    0.00631358
      62.9000    0.00621152
      63.0000    0.00611100
      63.1000    0.00601195
      63.2000    0.00591426
      63.3000    0.00581792
      63.4000    0.00572303
      63.5000    0.00562965
      63.6000    0.00553756
      63.7000    0.00544680
      63.8000    0.00535748
      63.9000    0.00526955
      64.0000    0.00518292
      64.1000    0.00509759
      64.2000    0.00501366
      64.3000    0.00493104
      64.4000    0.00484959
      64.5000    0.00476924
      64.6000    0.00469005
      64.7000    0.00461203
      64.8000    0.00453516
      64.9000    0.00445944
      65.0000    0.00438493
      65.1000    0.00431173
      65.2000    0.00423967
      65.3000    0.00416863
      65.4000    0.00409860
      65.5000    0.00402959
      65.6000    0.00396156
      65.7000    0.00389458
      65.8000    0.00382869
      65.9000    0.00376390
      66.0000    0.00370020
      66.1000    0.00363753
      66.2000    0.00357580
      66.3000    0.00351500
      66.4000    0.00345511
      66.5000    0.00339611
      66.6000    0.00333798
      66.7000    0.00328076
      66.8000    0.00322454
      66.9000    0.00316962
      67.0000    0.00311588
      67.1000    0.00306302
      67.2000    0.00301098
      67.3000    0.00295979
      67.4000    0.00290936
      67.5000    0.00285968
      67.6000    0.00281076
      67.7000    0.00276263
      67.8000    0.00271519
      67.9000    0.00266830
      68.0000    0.00262215
      68.1000    0.00257681
      68.2000    0.00253218
      68.3000    0.00248826
      68.4000    0.00244505
      68.5000    0.00240254
      68.6000    0.00236072
      68.7000    0.00231959
      68.8000    0.00227911
      68.9000    0.00223985
      69.0000    0.00220435
      69.1000    0.00217228
      69.2000    0.00214119
      69.3000    0.00211090
      69.4000    0.00208181
      69.5000    0.00205219
      69.6000    0.00202171
      69.7000    0.00199248
      69.8000    0.00196465
      69.9000    0.00193720
      70.0000    0.00191006
      70.1000    0.00188274
      70.2000    0.00185676
      70.3000    0.00183211
      70.4000    0.00180756
      70.5000    0.00178365
      70.6000    0.00176032
      70.7000    0.00173731
      70.8000    0.00171456
      70.9000    0.00169128
      71.0000    0.00166756
      71.1000    0.00164493
      71.2000    0.00162339
      71.3000    0.00160057
      71.4000    0.00157620
      71.5000    0.00155374
      71.6000    0.00153405
      71.7000    0.00151424
      71.8000    0.00149379
      71.9000    0.00147405
      72.0000    0.00145578
