Filter Al-poly
observation_date 22-Sept-2021 22:45:45
wavelength effective area 
      1.00000   2.78456e-10
      1.10000   7.94911e-10
      1.20000   2.06646e-09
      1.30000   4.94129e-09
      1.40000   1.12121e-08
      1.50000   2.39195e-08
      1.60000   4.84222e-08
      1.70000   9.40046e-08
      1.80000   1.75010e-07
      1.90000   3.14546e-07
      2.00000   5.46835e-07
      2.10000   9.23632e-07
      2.20000   1.52298e-06
      2.30000   2.44821e-06
      2.40000   3.84359e-06
      2.50000   5.87406e-06
      2.60000   8.96445e-06
      2.70000   1.33654e-05
      2.80000   1.95458e-05
      2.90000   2.82907e-05
      3.00000   4.03094e-05
      3.10000   5.66961e-05
      3.20000   7.88748e-05
      3.30000   0.000108614
      3.40000   0.000148011
      3.50000   0.000199746
      3.60000   0.000268329
      3.70000   0.000356637
      3.80000   0.000472050
      3.90000   0.000621355
      4.00000   0.000812808
      4.10000    0.00105834
      4.20000    0.00137315
      4.30000    0.00177656
      4.40000    0.00229242
      4.50000    0.00294999
      4.60000    0.00378351
      4.70000    0.00485250
      4.80000    0.00621732
      4.90000    0.00786372
      5.00000     0.0102083
      5.10000     0.0130653
      5.20000     0.0167722
      5.30000     0.0213490
      5.40000     0.0271320
      5.50000     0.0345428
      5.60000     0.0426300
      5.70000     0.0554278
      5.80000     0.0649997
      5.90000     0.0992748
      6.00000      0.133493
      6.10000      0.170677
      6.20000      0.209683
      6.30000      0.246929
      6.40000      0.278937
      6.50000      0.302567
      6.60000      0.313355
      6.70000      0.323310
      6.80000      0.323924
      6.90000      0.425216
      7.00000      0.462707
      7.10000      0.489682
      7.20000      0.511235
      7.30000      0.528963
      7.40000      0.542639
      7.50000      0.553652
      7.60000      0.562109
      7.70000      0.566516
      7.80000      0.565760
      7.90000      0.565697
      8.00000      0.954837
      8.10000       1.05067
      8.20000       1.07348
      8.30000       1.09166
      8.40000       1.10581
      8.50000       1.11840
      8.60000       1.12908
      8.70000       1.13856
      8.80000       1.14646
      8.90000       1.15333
      9.00000       1.15907
      9.10000       1.16372
      9.20000       1.16749
      9.30000       1.17027
      9.40000       1.17221
      9.50000       1.17337
      9.60000       1.17369
      9.70000       1.17326
      9.80000       1.17224
      9.90000       1.17064
      10.0000       1.16853
      10.1000       1.16591
      10.2000       1.16282
      10.3000       1.15919
      10.4000       1.15504
      10.5000       1.15041
      10.6000       1.14534
      10.7000       1.13983
      10.8000       1.13390
      10.9000       1.12758
      11.0000       1.12088
      11.1000       1.11383
      11.2000       1.10643
      11.3000       1.09872
      11.4000       1.09068
      11.5000       1.08230
      11.6000       1.07360
      11.7000       1.06448
      11.8000       1.05506
      11.9000       1.04514
      12.0000       1.03362
      12.1000       1.02574
      12.2000       1.03576
      12.3000       1.03494
      12.4000       1.02643
      12.5000       1.01712
      12.6000       1.00741
      12.7000      0.997445
      12.8000      0.987287
      12.9000      0.976946
      13.0000      0.966479
      13.1000      0.955921
      13.2000      0.945298
      13.3000      0.934628
      13.4000      0.923938
      13.5000      0.913387
      13.6000      0.902943
      13.7000      0.892500
      13.8000      0.882046
      13.9000      0.871620
      14.0000      0.861216
      14.1000      0.850808
      14.2000      0.840395
      14.3000      0.829970
      14.4000      0.819503
      14.5000      0.809006
      14.6000      0.798462
      14.7000      0.787881
      14.8000      0.777276
      14.9000      0.766652
      15.0000      0.756023
      15.1000      0.745414
      15.2000      0.734824
      15.3000      0.724259
      15.4000      0.713720
      15.5000      0.703220
      15.6000      0.692805
      15.7000      0.682431
      15.8000      0.672155
      15.9000      0.661968
      16.0000      0.651867
      16.1000      0.641867
      16.2000      0.631983
      16.3000      0.622169
      16.4000      0.612424
      16.5000      0.602745
      16.6000      0.593125
      16.7000      0.583564
      16.8000      0.574059
      16.9000      0.564612
      17.0000      0.555229
      17.1000      0.545904
      17.2000      0.536632
      17.3000      0.527423
      17.4000      0.518429
      17.5000      0.509648
      17.6000      0.501044
      17.7000      0.492692
      17.8000      0.484676
      17.9000      0.476754
      18.0000      0.468842
      18.1000      0.460977
      18.2000      0.453100
      18.3000      0.445181
      18.4000      0.437178
      18.5000      0.429118
      18.6000      0.420992
      18.7000      0.412734
      18.8000      0.404540
      18.9000      0.396409
      19.0000      0.388340
      19.1000      0.380376
      19.2000      0.372505
      19.3000      0.364750
      19.4000      0.357119
      19.5000      0.349596
      19.6000      0.342241
      19.7000      0.334988
      19.8000      0.327832
      19.9000      0.320815
      20.0000      0.313876
      20.1000      0.307021
      20.2000      0.300234
      20.3000      0.293514
      20.4000      0.286880
      20.5000      0.280300
      20.6000      0.273774
      20.7000      0.267324
      20.8000      0.260930
      20.9000      0.254576
      21.0000      0.248289
      21.1000      0.242076
      21.2000      0.235861
      21.3000      0.229700
      21.4000      0.223608
      21.5000      0.217518
      21.6000      0.211425
      21.7000      0.205339
      21.8000      0.199286
      21.9000      0.193010
      22.0000      0.186722
      22.1000      0.180315
      22.2000      0.173521
      22.3000      0.166408
      22.4000      0.156616
      22.5000      0.146068
      22.6000      0.124447
      22.7000      0.114879
      22.8000      0.156625
      22.9000      0.206050
      23.0000      0.265066
      23.1000      0.301980
      23.2000      0.319884
      23.3000      0.323739
      23.4000      0.320666
      23.5000      0.317158
      23.6000      0.313561
      23.7000      0.309102
      23.8000      0.304599
      23.9000      0.299978
      24.0000      0.295352
      24.1000      0.290519
      24.2000      0.285709
      24.3000      0.280895
      24.4000      0.276089
      24.5000      0.271256
      24.6000      0.266457
      24.7000      0.261697
      24.8000      0.256969
      24.9000      0.252272
      25.0000      0.247618
      25.1000      0.243018
      25.2000      0.238457
      25.3000      0.233944
      25.4000      0.229479
      25.5000      0.225081
      25.6000      0.220740
      25.7000      0.216468
      25.8000      0.212245
      25.9000      0.208088
      26.0000      0.203972
      26.1000      0.199917
      26.2000      0.195900
      26.3000      0.191960
      26.4000      0.188052
      26.5000      0.184211
      26.6000      0.180402
      26.7000      0.176670
      26.8000      0.172982
      26.9000      0.169346
      27.0000      0.165746
      27.1000      0.162167
      27.2000      0.158614
      27.3000      0.155458
      27.4000      0.152781
      27.5000      0.150003
      27.6000      0.146897
      27.7000      0.143817
      27.8000      0.140711
      27.9000      0.137633
      28.0000      0.134627
      28.1000      0.131657
      28.2000      0.128753
      28.3000      0.125901
      28.4000      0.123097
      28.5000      0.120356
      28.6000      0.117648
      28.7000      0.115052
      28.8000      0.112482
      28.9000      0.109973
      29.0000      0.107498
      29.1000      0.105069
      29.2000      0.102687
      29.3000      0.100336
      29.4000     0.0980473
      29.5000     0.0957820
      29.6000     0.0935750
      29.7000     0.0913990
      29.8000     0.0892652
      29.9000     0.0871780
      30.0000     0.0851147
      30.1000     0.0831132
      30.2000     0.0811326
      30.3000     0.0824038
      30.4000     0.0854944
      30.5000     0.0874699
      30.6000     0.0854578
      30.7000     0.0834673
      30.8000     0.0815294
      30.9000     0.0796214
      31.0000     0.0777464
      31.1000     0.0759184
      31.2000     0.0741106
      31.3000     0.0723546
      31.4000     0.0706245
      31.5000     0.0689259
      31.6000     0.0672713
      31.7000     0.0656353
      31.8000     0.0640475
      31.9000     0.0624850
      32.0000     0.0609494
      32.1000     0.0594581
      32.2000     0.0579838
      32.3000     0.0565517
      32.4000     0.0551471
      32.5000     0.0537660
      32.6000     0.0524576
      32.7000     0.0511639
      32.8000     0.0499017
      32.9000     0.0486701
      33.0000     0.0474525
      33.1000     0.0463166
      33.2000     0.0452001
      33.3000     0.0441026
      33.4000     0.0430393
      33.5000     0.0419883
      33.6000     0.0409659
      33.7000     0.0399668
      33.8000     0.0389787
      33.9000     0.0380257
      34.0000     0.0370867
      34.1000     0.0361671
      34.2000     0.0352734
      34.3000     0.0343896
      34.4000     0.0335266
      34.5000     0.0326875
      34.6000     0.0318576
      34.7000     0.0310379
      34.8000     0.0302278
      34.9000     0.0294267
      35.0000     0.0286578
      35.1000     0.0278999
      35.2000     0.0271533
      35.3000     0.0264369
      35.4000     0.0257285
      35.5000     0.0250351
      35.6000     0.0243664
      35.7000     0.0237053
      35.8000     0.0230618
      35.9000     0.0224382
      36.0000     0.0218219
      36.1000     0.0212252
      36.2000     0.0206445
      36.3000     0.0200705
      36.4000     0.0195175
      36.5000     0.0189772
      36.6000     0.0184433
      36.7000     0.0179310
      36.8000     0.0174290
      36.9000     0.0169331
      37.0000     0.0164587
      37.1000     0.0159929
      37.2000     0.0155328
      37.3000     0.0150939
      37.4000     0.0146623
      37.5000     0.0142360
      37.6000     0.0138299
      37.7000     0.0134304
      37.8000     0.0130359
      37.9000     0.0126604
      38.0000     0.0122912
      38.1000     0.0119267
      38.2000     0.0115795
      38.3000     0.0112387
      38.4000     0.0109023
      38.5000     0.0105814
      38.6000     0.0102671
      38.7000    0.00995696
      38.8000    0.00966037
      38.9000    0.00937109
      39.0000    0.00908557
      39.1000    0.00881153
      39.2000    0.00854565
      39.3000    0.00828323
      39.4000    0.00802998
      39.5000    0.00778583
      39.6000    0.00754491
      39.7000    0.00731088
      39.8000    0.00708718
      39.9000    0.00686642
      40.0000    0.00665021
      40.1000    0.00644545
      40.2000    0.00624338
      40.3000    0.00604399
      40.4000    0.00585640
      40.5000    0.00567172
      40.6000    0.00548949
      40.7000    0.00531616
      40.8000    0.00514755
      40.9000    0.00498126
      41.0000    0.00482104
      41.1000    0.00466733
      41.2000    0.00451579
      41.3000    0.00436777
      41.4000    0.00422813
      41.5000    0.00409042
      41.6000    0.00395455
      41.7000    0.00382676
      41.8000    0.00370161
      41.9000    0.00357818
      42.0000    0.00346012
      42.1000    0.00334670
      42.2000    0.00323489
      42.3000    0.00312566
      42.4000    0.00302294
      42.5000    0.00292169
      42.6000    0.00282180
      42.7000    0.00272771
      42.8000    0.00263613
      42.9000    0.00254582
      43.0000    0.00245869
      43.1000    0.00237602
      43.2000    0.00229456
      43.3000    0.00221420
      43.4000    0.00700089
      43.5000     0.0186483
      43.6000     0.0395514
      43.7000     0.0624950
      43.8000     0.0725773
      43.9000     0.0713301
      44.0000     0.0700871
      44.1000     0.0688929
      44.2000     0.0677042
      44.3000     0.0665195
      44.4000     0.0653585
      44.5000     0.0642274
      44.6000     0.0630998
      44.7000     0.0619760
      44.8000     0.0608949
      44.9000     0.0598226
      45.0000     0.0587539
      45.1000     0.0577016
      45.2000     0.0566832
      45.3000     0.0556681
      45.4000     0.0546564
      45.5000     0.0536766
      45.6000     0.0527131
      45.7000     0.0517529
      45.8000     0.0507975
      45.9000     0.0498846
      46.0000     0.0489745
      46.1000     0.0480675
      46.2000     0.0472182
      46.3000     0.0464655
      46.4000     0.0457152
      46.5000     0.0449675
      46.6000     0.0442563
      46.7000     0.0435641
      46.8000     0.0428743
      46.9000     0.0421867
      47.0000     0.0415476
      47.1000     0.0409135
      47.2000     0.0402815
      47.3000     0.0396568
      47.4000     0.0390576
      47.5000     0.0384604
      47.6000     0.0378652
      47.7000     0.0372808
      47.8000     0.0367120
      47.9000     0.0361450
      48.0000     0.0355801
      48.1000     0.0350295
      48.2000     0.0344903
      48.3000     0.0339528
      48.4000     0.0334172
      48.5000     0.0328982
      48.6000     0.0323867
      48.7000     0.0318769
      48.8000     0.0313689
      48.9000     0.0308797
      49.0000     0.0303956
      49.1000     0.0299131
      49.2000     0.0294323
      49.3000     0.0289713
      49.4000     0.0285133
      49.5000     0.0280570
      49.6000     0.0276021
      49.7000     0.0271673
      49.8000     0.0267343
      49.9000     0.0263028
      50.0000     0.0258732
      50.1000     0.0254591
      50.2000     0.0250565
      50.3000     0.0246588
      50.4000     0.0242670
      50.5000     0.0238811
      50.6000     0.0235009
      50.7000     0.0231260
      50.8000     0.0227557
      50.9000     0.0223914
      51.0000     0.0220331
      51.1000     0.0216805
      51.2000     0.0213327
      51.3000     0.0209899
      51.4000     0.0206528
      51.5000     0.0203202
      51.6000     0.0199921
      51.7000     0.0196683
      51.8000     0.0193471
      51.9000     0.0190304
      52.0000     0.0187185
      52.1000     0.0184115
      52.2000     0.0181085
      52.3000     0.0178095
      52.4000     0.0175156
      52.5000     0.0172261
      52.6000     0.0169403
      52.7000     0.0166581
      52.8000     0.0163799
      52.9000     0.0161062
      53.0000     0.0158367
      53.1000     0.0155712
      53.2000     0.0153099
      53.3000     0.0150522
      53.4000     0.0147985
      53.5000     0.0145486
      53.6000     0.0143021
      53.7000     0.0140592
      53.8000     0.0138202
      53.9000     0.0135848
      54.0000     0.0133533
      54.1000     0.0131259
      54.2000     0.0129014
      54.3000     0.0126799
      54.4000     0.0124620
      54.5000     0.0122476
      54.6000     0.0120365
      54.7000     0.0118288
      54.8000     0.0116243
      54.9000     0.0114230
      55.0000     0.0112249
      55.1000     0.0110297
      55.2000     0.0108280
      55.3000     0.0106208
      55.4000     0.0104169
      55.5000     0.0102162
      55.6000     0.0100193
      55.7000    0.00982573
      55.8000    0.00963536
      55.9000    0.00944837
      56.0000    0.00926583
      56.1000    0.00908292
      56.2000    0.00890025
      56.3000    0.00872116
      56.4000    0.00854516
      56.5000    0.00837206
      56.6000    0.00820197
      56.7000    0.00803515
      56.8000    0.00787130
      56.9000    0.00771067
      57.0000    0.00755328
      57.1000    0.00739875
      57.2000    0.00724674
      57.3000    0.00709722
      57.4000    0.00695069
      57.5000    0.00680700
      57.6000    0.00666588
      57.7000    0.00652726
      57.8000    0.00639144
      57.9000    0.00625815
      58.0000    0.00612729
      58.1000    0.00599880
      58.2000    0.00587298
      58.3000    0.00574953
      58.4000    0.00562826
      58.5000    0.00550915
      58.6000    0.00539245
      58.7000    0.00527812
      58.8000    0.00516598
      58.9000    0.00505587
      59.0000    0.00494778
      59.1000    0.00484183
      59.2000    0.00473786
      59.3000    0.00463594
      59.4000    0.00453611
      59.5000    0.00443838
      59.6000    0.00434252
      59.7000    0.00424834
      59.8000    0.00415590
      59.9000    0.00406526
      60.0000    0.00397663
      60.1000    0.00388974
      60.2000    0.00380456
      60.3000    0.00372103
      60.4000    0.00363911
      60.5000    0.00355896
      60.6000    0.00348033
      60.7000    0.00340321
      60.8000    0.00332762
      60.9000    0.00325350
      61.0000    0.00318090
      61.1000    0.00310978
      61.2000    0.00304011
      61.3000    0.00297189
      61.4000    0.00290507
      61.5000    0.00283960
      61.6000    0.00277548
      61.7000    0.00271266
      61.8000    0.00265146
      61.9000    0.00259165
      62.0000    0.00253308
      62.1000    0.00247576
      62.2000    0.00241974
      62.3000    0.00236484
      62.4000    0.00231103
      62.5000    0.00225830
      62.6000    0.00220662
      62.7000    0.00215600
      62.8000    0.00210664
      62.9000    0.00205835
      63.0000    0.00201109
      63.1000    0.00196482
      63.2000    0.00191951
      63.3000    0.00187511
      63.4000    0.00183163
      63.5000    0.00178912
      63.6000    0.00174753
      63.7000    0.00170683
      63.8000    0.00166703
      63.9000    0.00162809
      64.0000    0.00158997
      64.1000    0.00155267
      64.2000    0.00151620
      64.3000    0.00148053
      64.4000    0.00144564
      64.5000    0.00141150
      64.6000    0.00137808
      64.7000    0.00134538
      64.8000    0.00131336
      64.9000    0.00128203
      65.0000    0.00125140
      65.1000    0.00122150
      65.2000    0.00119228
      65.3000    0.00116371
      65.4000    0.00113575
      65.5000    0.00110838
      65.6000    0.00108159
      65.7000    0.00105540
      65.8000    0.00102981
      65.9000    0.00100481
      66.0000   0.000980404
      66.1000   0.000956590
      66.2000   0.000933310
      66.3000   0.000910539
      66.4000   0.000888255
      66.5000   0.000866459
      66.6000   0.000845153
      66.7000   0.000824345
      66.8000   0.000804031
      66.9000   0.000784313
      67.0000   0.000765152
      67.1000   0.000746435
      67.2000   0.000728138
      67.3000   0.000710269
      67.4000   0.000692803
      67.5000   0.000675741
      67.6000   0.000659075
      67.7000   0.000642793
      67.8000   0.000626861
      67.9000   0.000611256
      68.0000   0.000596075
      68.1000   0.000581308
      68.2000   0.000566882
      68.3000   0.000552800
      68.4000   0.000539055
      68.5000   0.000525637
      68.6000   0.000512528
      68.7000   0.000499715
      68.8000   0.000487191
      68.9000   0.000475082
      69.0000   0.000463987
      69.1000   0.000454567
      69.2000   0.000446135
      69.3000   0.000437942
      69.4000   0.000430061
      69.5000   0.000422124
      69.6000   0.000414056
      69.7000   0.000406291
      69.8000   0.000398868
      69.9000   0.000391580
      70.0000   0.000384414
      70.1000   0.000377270
      70.2000   0.000370726
      70.3000   0.000364764
      70.4000   0.000358874
      70.5000   0.000353134
      70.6000   0.000347529
      70.7000   0.000342011
      70.8000   0.000336571
      70.9000   0.000331060
      71.0000   0.000325497
      71.1000   0.000320181
      71.2000   0.000315103
      71.3000   0.000309807
      71.4000   0.000304234
      71.5000   0.000299051
      71.6000   0.000294419
      71.7000   0.000289783
      71.8000   0.000285050
      71.9000   0.000280482
      72.0000   0.000276220
