Filter Be-thin
observation_date 22Sept2020
wavelength effective area
      1.00000   2.78437e-10
      1.10000   7.94895e-10
      1.20000   2.06654e-09
      1.30000   4.94175e-09
      1.40000   1.12138e-08
      1.50000   2.39245e-08
      1.60000   4.84352e-08
      1.70000   9.40354e-08
      1.80000   1.75077e-07
      1.90000   3.14681e-07
      2.00000   5.47094e-07
      2.10000   9.24104e-07
      2.20000   1.52380e-06
      2.30000   2.44956e-06
      2.40000   3.84573e-06
      2.50000   5.87730e-06
      2.60000   8.96919e-06
      2.70000   1.33719e-05
      2.80000   1.95541e-05
      2.90000   2.83001e-05
      3.00000   4.03182e-05
      3.10000   5.67011e-05
      3.20000   7.88694e-05
      3.30000   0.000108587
      3.40000   0.000147940
      3.50000   0.000199599
      3.60000   0.000268049
      3.70000   0.000356140
      3.80000   0.000471205
      3.90000   0.000619964
      4.00000   0.000810580
      4.10000    0.00105485
      4.20000    0.00136785
      4.30000    0.00176861
      4.40000    0.00228059
      4.50000    0.00293257
      4.60000    0.00375813
      4.70000    0.00481567
      4.80000    0.00616415
      4.90000    0.00778841
      5.00000     0.0100990
      5.10000     0.0129100
      5.20000     0.0165509
      5.30000     0.0210380
      5.40000     0.0266964
      5.50000     0.0339336
      5.60000     0.0418067
      5.70000     0.0542591
      5.80000     0.0635033
      5.90000     0.0967882
      6.00000      0.129865
      6.10000      0.165652
      6.20000      0.203011
      6.30000      0.238469
      6.40000      0.268674
      6.50000      0.290634
      6.60000      0.300135
      6.70000      0.308721
      6.80000      0.308348
      6.90000      0.403453
      7.00000      0.437524
      7.10000      0.461367
      7.20000      0.479848
      7.30000      0.494470
      7.40000      0.505100
      7.50000      0.513083
      7.60000      0.518543
      7.70000      0.520132
      7.80000      0.516892
      7.90000      0.514200
      8.00000      0.740261
      8.10000      0.806631
      8.20000      0.815829
      8.30000      0.821233
      8.40000      0.823198
      8.50000      0.823675
      8.60000      0.822429
      8.70000      0.820038
      8.80000      0.816248
      8.90000      0.811496
      9.00000      0.805736
      9.10000      0.799032
      9.20000      0.791566
      9.30000      0.783275
      9.40000      0.774296
      9.50000      0.764694
      9.60000      0.754443
      9.70000      0.743647
      9.80000      0.732409
      9.90000      0.720766
      10.0000      0.708776
      10.1000      0.696465
      10.2000      0.683866
      10.3000      0.670970
      10.4000      0.657816
      10.5000      0.644436
      10.6000      0.630864
      10.7000      0.617129
      10.8000      0.603257
      10.9000      0.589287
      11.0000      0.575231
      11.1000      0.561128
      11.2000      0.546991
      11.3000      0.532850
      11.4000      0.518709
      11.5000      0.504580
      11.6000      0.490484
      11.7000      0.476403
      11.8000      0.462388
      11.9000      0.448360
      12.0000      0.433891
      12.1000      0.421095
      12.2000      0.415751
      12.3000      0.406047
      12.4000      0.393456
      12.5000      0.380782
      12.6000      0.368196
      12.7000      0.355767
      12.8000      0.343522
      12.9000      0.331467
      13.0000      0.319628
      13.1000      0.308019
      13.2000      0.296668
      13.3000      0.285634
      13.4000      0.274900
      13.5000      0.264455
      13.6000      0.254310
      13.7000      0.244423
      13.8000      0.234789
      13.9000      0.225417
      14.0000      0.216301
      14.1000      0.207422
      14.2000      0.198770
      14.3000      0.190350
      14.4000      0.182165
      14.5000      0.174229
      14.6000      0.166550
      14.7000      0.159101
      14.8000      0.151881
      14.9000      0.144887
      15.0000      0.138117
      15.1000      0.131572
      15.2000      0.125291
      15.3000      0.119235
      15.4000      0.113392
      15.5000      0.107757
      15.6000      0.102332
      15.7000     0.0971314
      15.8000     0.0921619
      15.9000     0.0873844
      16.0000     0.0827927
      16.1000     0.0783825
      16.2000     0.0741938
      16.3000     0.0701882
      16.4000     0.0663436
      16.5000     0.0626546
      16.6000     0.0591430
      16.7000     0.0558093
      16.8000     0.0526141
      16.9000     0.0495530
      17.0000     0.0466507
      17.1000     0.0439170
      17.2000     0.0413126
      17.3000     0.0388321
      17.4000     0.0365082
      17.5000     0.0343038
      17.6000     0.0322130
      17.7000     0.0302634
      17.8000     0.0284971
      17.9000     0.0268121
      18.0000     0.0251964
      18.1000     0.0236896
      18.2000     0.0222329
      18.3000     0.0208194
      18.4000     0.0194610
      18.5000     0.0181603
      18.6000     0.0169017
      18.7000     0.0156974
      18.8000     0.0145709
      18.9000     0.0134986
      19.0000     0.0125044
      19.1000     0.0115776
      19.2000     0.0106965
      19.3000    0.00988715
      19.4000    0.00913850
      19.5000    0.00843345
      19.6000    0.00781149
      19.7000    0.00722401
      19.8000    0.00666736
      19.9000    0.00616509
      20.0000    0.00568610
      20.1000    0.00524074
      20.2000    0.00483190
      20.3000    0.00444203
      20.4000    0.00408898
      20.5000    0.00375736
      20.6000    0.00344497
      20.7000    0.00316440
      20.8000    0.00289639
      20.9000    0.00265294
      21.0000    0.00242676
      21.1000    0.00221386
      21.2000    0.00202384
      21.3000    0.00184206
      21.4000    0.00167931
      21.5000    0.00152709
      21.6000    0.00138545
      21.7000    0.00125831
      21.8000    0.00113652
      21.9000    0.00102939
      22.0000   0.000927011
      22.1000   0.000834984
      22.2000   0.000749170
      22.3000   0.000668801
      22.4000   0.000588381
      22.5000   0.000508306
      22.6000   0.000407748
      22.7000   0.000331450
      22.8000   0.000373078
      22.9000   0.000434078
      23.0000   0.000511939
      23.1000   0.000544039
      23.2000   0.000532783
      23.3000   0.000500242
      23.4000   0.000457031
      23.5000   0.000418111
      23.6000   0.000380389
      23.7000   0.000346792
      23.8000   0.000313856
      23.9000   0.000285629
      24.0000   0.000258074
      24.1000   0.000234165
      24.2000   0.000211143
      24.3000   0.000191150
      24.4000   0.000172104
      24.5000   0.000155442
      24.6000   0.000139724
      24.7000   0.000125951
      24.8000   0.000113044
      24.9000   0.000101707
      25.0000   9.11313e-05
      25.1000   8.18571e-05
      25.2000   7.32168e-05
      25.3000   6.56636e-05
      25.4000   5.86171e-05
      25.5000   5.25032e-05
      25.6000   4.67715e-05
      25.7000   4.18479e-05
      25.8000   3.71922e-05
      25.9000   3.32477e-05
      26.0000   2.94721e-05
      26.1000   2.63273e-05
      26.2000   2.32692e-05
      26.3000   2.07771e-05
      26.4000   1.83054e-05
      26.5000   1.63403e-05
      26.6000   1.43875e-05
      26.7000   1.28051e-05
      26.8000   1.12755e-05
      26.9000   9.99848e-06
      27.0000   8.80543e-06
      27.1000   7.77439e-06
      27.2000   6.84798e-06
      27.3000   6.02848e-06
      27.4000   5.34045e-06
      27.5000   4.69190e-06
      27.6000   4.14785e-06
      27.7000   3.61407e-06
      27.8000   3.19742e-06
      27.9000   2.78339e-06
      28.0000   2.45259e-06
      28.1000   2.13956e-06
      28.2000   1.87306e-06
      28.3000   1.63796e-06
      28.4000   1.42392e-06
      28.5000   1.24853e-06
      28.6000   1.07730e-06
      28.7000   9.47454e-07
      28.8000   8.18449e-07
      28.9000   7.15582e-07
      29.0000   6.20581e-07
      29.1000   5.37610e-07
      29.2000   4.68135e-07
      29.3000   4.01639e-07
      29.4000   3.51206e-07
      29.5000   3.01105e-07
      29.6000   2.61956e-07
      29.7000   2.25859e-07
      29.8000   1.94188e-07
      29.9000   1.68374e-07
      30.0000   1.43016e-07
      30.1000   1.24696e-07
      30.2000   1.06499e-07
      30.3000   9.29089e-08
      30.4000   8.19762e-08
      30.5000   7.13865e-08
      30.6000   6.18704e-08
      30.7000   5.24184e-08
      30.8000   4.51802e-08
      30.9000   3.86363e-08
      31.0000   3.27664e-08
      31.1000   2.83598e-08
      31.2000   2.39831e-08
      31.3000   2.07142e-08
      31.4000   1.76979e-08
      31.5000   1.49969e-08
      31.6000   1.29351e-08
      31.7000   1.08875e-08
      31.8000   9.36357e-09
      31.9000   7.97810e-09
      32.0000   6.72128e-09
      32.1000   5.81766e-09
      32.2000   4.92030e-09
      32.3000   4.22288e-09
      32.4000   3.61568e-09
      32.5000   3.03388e-09
      32.6000   2.62684e-09
      32.7000   2.22267e-09
      32.8000   1.88712e-09
      32.9000   1.61799e-09
      33.0000   1.35075e-09
      33.1000   1.16287e-09
      33.2000   9.86776e-10
      33.3000   8.25637e-10
      33.4000   7.10318e-10
      33.5000   5.95783e-10
      33.6000   5.04077e-10
      33.7000   4.29757e-10
      33.8000   3.55932e-10
      33.9000   3.05015e-10
      34.0000   2.57533e-10
      34.1000   2.13201e-10
      34.2000   1.82952e-10
      34.3000   1.52897e-10
      34.4000   1.27723e-10
      34.5000   1.08752e-10
      34.6000   8.99048e-11
      34.7000   7.58446e-11
      34.8000   6.40435e-11
      34.9000   5.23185e-11
      35.0000   4.46128e-11
      35.1000   3.73643e-11
      35.2000   3.04572e-11
      35.3000   2.60215e-11
      35.4000   2.16145e-11
      35.5000   1.77213e-11
      35.6000   1.50525e-11
      35.7000   1.24010e-11
      35.8000   1.02256e-11
      35.9000   8.63672e-12
      36.0000   7.05823e-12
      36.1000   5.85164e-12
      36.2000   4.91609e-12
      36.3000   3.98669e-12
      36.4000   3.32143e-12
      36.5000   2.77663e-12
      36.6000   2.23548e-12
      36.7000   1.87007e-12
      36.8000   1.55641e-12
      36.9000   1.24485e-12
      37.0000   1.04445e-12
      37.1000   8.65928e-13
      37.2000   6.88592e-13
      37.3000   5.78631e-13
      37.4000   4.78217e-13
      37.5000   3.78484e-13
      37.6000   3.17987e-13
      37.7000   2.62197e-13
      37.8000   2.06785e-13
      37.9000   1.73344e-13
      38.0000   1.42719e-13
      38.1000   1.12302e-13
      38.2000   9.37123e-14
      38.3000   7.71056e-14
      38.4000   6.06120e-14
      38.5000   5.02241e-14
      38.6000   4.13379e-14
      38.7000   3.25124e-14
      38.8000   2.66827e-14
      38.9000   2.19904e-14
      39.0000   1.73301e-14
      39.1000   1.40494e-14
      39.2000   1.16039e-14
      39.3000   9.17503e-15
      39.4000   7.32078e-15
      39.5000   6.04897e-15
      39.6000   4.78601e-15
      39.7000   3.73901e-15
      39.8000   3.10083e-15
      39.9000   2.46705e-15
      40.0000   1.88756e-15
      40.1000   1.57260e-15
      40.2000   1.25982e-15
      40.3000   9.49244e-16
      40.4000   7.89064e-16
      40.5000   6.36963e-16
      40.6000   4.85916e-16
      40.7000   3.91376e-16
      40.8000   3.18508e-16
      40.9000   2.46155e-16
      41.0000   1.91707e-16
      41.1000   1.57360e-16
      41.2000   1.23259e-16
      41.3000   9.26878e-17
      41.4000   7.67625e-17
      41.5000   6.09478e-17
      41.6000   4.52451e-17
      41.7000   3.69425e-17
      41.8000   2.97248e-17
      41.9000   2.25580e-17
      42.0000   1.75225e-17
      42.1000   1.42827e-17
      42.2000   1.10657e-17
      42.3000   8.18344e-18
      42.4000   6.75399e-18
      42.5000   5.33457e-18
      42.6000   3.92525e-18
      42.7000   3.14071e-18
      42.8000   2.52538e-18
      42.9000   1.91434e-18
      43.0000   1.43518e-18
      43.1000   1.17304e-18
      43.2000   9.12777e-19
      43.3000   6.54365e-19
      43.4000   6.54818e-19
      43.5000   7.26536e-19
      43.6000   8.47514e-19
      43.7000   9.26616e-19
      43.8000   8.58830e-19
      43.9000   6.85928e-19
      44.0000   4.86048e-19
      44.1000   3.84354e-19
      44.2000   3.05439e-19
      44.3000   2.28001e-19
      44.4000   1.70478e-19
      44.5000   1.39057e-19
      44.6000   1.07719e-19
      44.7000   7.64648e-20
      44.8000   6.16697e-20
      44.9000   4.92325e-20
      45.0000   3.68277e-20
      45.1000   2.66489e-20
      45.2000   2.18107e-20
      45.3000   1.69856e-20
      45.4000   1.21727e-20
      45.5000   9.37961e-21
      45.6000   7.54051e-21
      45.7000   5.70633e-21
      45.8000   3.91954e-21
      45.9000   3.23296e-21
      46.0000   2.54816e-21
      46.1000   1.86515e-21
      46.2000   1.34178e-21
      46.3000   1.09213e-21
      46.4000   8.43151e-22
      46.5000   5.94809e-22
      46.6000   4.52374e-22
      46.7000   3.62953e-22
      46.8000   2.73769e-22
      46.9000   1.84814e-22
      47.0000   1.49715e-22
      47.1000   1.18350e-22
      47.2000   8.70660e-23
      47.3000   5.94528e-23
      47.4000   4.86503e-23
      47.5000   3.78753e-23
      47.6000   2.71286e-23
      47.7000   1.91437e-23
      47.8000   1.55161e-23
      47.9000   1.18975e-23
      48.0000   8.28861e-24
      48.1000   6.04980e-24
      48.2000   4.85904e-24
      48.3000   3.67130e-24
      48.4000   2.48666e-24
      48.5000   1.87605e-24
      48.6000   1.49429e-24
      48.7000   1.11351e-24
      48.8000   7.33679e-25
      48.9000   5.70717e-25
      49.0000   4.51317e-25
      49.1000   3.32225e-25
      49.2000   2.13434e-25
      49.3000   1.73281e-25
      49.4000   1.40009e-25
      49.5000   1.06822e-25
      49.6000   7.37196e-26
      49.7000   6.63865e-26
      49.8000   5.97064e-26
      49.9000   5.30433e-26
      50.0000   4.63975e-26
      50.1000   4.06943e-26
      50.2000   3.28471e-26
      50.3000   2.65589e-26
      50.4000   2.29752e-26
      50.5000   2.07054e-26
      50.6000   1.84875e-26
      50.7000   1.42893e-26
      50.8000   1.19081e-26
      50.9000   6.52067e-27
      51.0000   4.36888e-27
      51.1000   3.53228e-27
      51.2000   3.53929e-27
      51.3000   3.16996e-27
      51.4000   1.95490e-27
      51.5000   1.17887e-27
      51.6000   8.31410e-28
      51.7000   5.60668e-28
      51.8000   4.24062e-28
      51.9000   3.52880e-28
      52.0000   2.79600e-28
      52.1000   1.93264e-28
      52.2000   1.47856e-28
      52.3000   9.73905e-29
      52.4000   6.35526e-29
      52.5000   5.02214e-29
      52.6000   4.46460e-29
      52.7000   3.80892e-29
      52.8000   2.58907e-29
      52.9000   1.48093e-29
      53.0000   9.90339e-30
      53.1000   6.53020e-30
      53.2000   4.38167e-30
      53.3000   2.90806e-30
      53.4000   1.90554e-30
      53.5000   1.08770e-30
      53.6000   5.49769e-31
      53.7000   3.21172e-31
      53.8000   2.39874e-31
      53.9000   1.64738e-31
      54.0000   1.10766e-31
      54.1000   7.20752e-32
      54.2000   5.10748e-32
      54.3000   3.07644e-32
      54.4000   1.30295e-32
      54.5000   7.11464e-33
      54.6000   5.09641e-33
      54.7000   3.86738e-33
      54.8000   2.71717e-33
      54.9000   1.84226e-33
      55.0000   1.34069e-33
      55.1000   9.69567e-34
      55.2000   6.95917e-34
      55.3000   6.43128e-34
      55.4000   5.73339e-34
      55.5000   4.11917e-34
      55.6000   2.64093e-34
      55.7000   1.90046e-34
      55.8000   1.29773e-34
      55.9000   9.09854e-35
      56.0000   6.65622e-35
      56.1000   4.60005e-35
      56.2000   4.26236e-35
      56.3000   3.47602e-35
      56.4000   2.51761e-35
      56.5000   1.73521e-35
      56.6000   1.19558e-35
      56.7000   8.71114e-36
      56.8000   6.39101e-36
      56.9000   4.52860e-36
      57.0000   3.02400e-36
      57.1000   2.01953e-36
      57.2000   1.39090e-36
      57.3000   9.84555e-37
      57.4000   7.03146e-37
      57.5000   4.98893e-37
      57.6000   3.24420e-37
      57.7000   2.25492e-37
      57.8000   2.04356e-37
      57.9000   1.53017e-37
      58.0000   1.09021e-37
      58.1000   7.19056e-38
      58.2000   4.13910e-38
      58.3000   2.72276e-38
      58.4000   2.05985e-38
      58.5000   1.64241e-38
      58.6000   1.12102e-38
      58.7000   7.57102e-39
      58.8000   5.08221e-39
      58.9000   3.42360e-39
      59.0000   2.48760e-39
      59.1000   1.84593e-39
      59.2000   1.36542e-39
      59.3000   1.00653e-39
      59.4000   7.39241e-40
      59.5000   5.20679e-40
      59.6000   3.44424e-40
      59.7000   2.63754e-40
      59.8000   1.83330e-40
      59.9000   1.08968e-40
      60.0000   8.02482e-41
      60.1000   5.91993e-41
      60.2000   4.35341e-41
      60.3000   3.19020e-41
      60.4000   2.33106e-41
      60.5000   1.71799e-41
      60.6000   1.27700e-41
      60.7000   1.00543e-41
      60.8000   8.29989e-42
      60.9000   6.83694e-42
      61.0000   5.64863e-42
      61.1000   4.68034e-42
      61.2000   3.89421e-42
      61.3000   3.22719e-42
      61.4000   2.67087e-42
      61.5000   2.22106e-42
      61.6000   1.76704e-42
      61.7000   1.39009e-42
      61.8000   1.09301e-42
      61.9000   8.66002e-43
      62.0000   6.61413e-43
      62.1000   4.79244e-43
      62.2000   3.39114e-43
      62.3000   2.46629e-43
      62.4000   2.01787e-43
      62.5000   1.75162e-43
      62.6000   1.49939e-43
      62.7000   1.27518e-43
      62.8000   1.12104e-43
      62.9000   8.26766e-44
      63.0000   5.74532e-44
      63.1000   3.78351e-44
      63.2000   3.50325e-44
      63.3000   2.52234e-44
      63.4000   2.24208e-44
      63.5000   1.54143e-44
      63.6000   1.26117e-44
      63.7000   9.80909e-45
      63.8000   9.80909e-45
      63.9000   7.00649e-45
      64.0000   2.80260e-45
      64.1000   2.80260e-45
      64.2000   2.80260e-45
      64.3000   2.80260e-45
      64.4000       0.00000
      64.5000       0.00000
      64.6000       0.00000
      64.7000       0.00000
      64.8000       0.00000
      64.9000       0.00000
      65.0000       0.00000
      65.1000       0.00000
      65.2000       0.00000
      65.3000       0.00000
      65.4000       0.00000
      65.5000       0.00000
      65.6000       0.00000
      65.7000       0.00000
      65.8000       0.00000
      65.9000       0.00000
      66.0000       0.00000
      66.1000       0.00000
      66.2000       0.00000
      66.3000       0.00000
      66.4000       0.00000
      66.5000       0.00000
      66.6000       0.00000
      66.7000       0.00000
      66.8000       0.00000
      66.9000       0.00000
      67.0000       0.00000
      67.1000       0.00000
      67.2000       0.00000
      67.3000       0.00000
      67.4000       0.00000
      67.5000       0.00000
      67.6000       0.00000
      67.7000       0.00000
      67.8000       0.00000
      67.9000       0.00000
      68.0000       0.00000
      68.1000       0.00000
      68.2000       0.00000
      68.3000       0.00000
      68.4000       0.00000
      68.5000       0.00000
      68.6000       0.00000
      68.7000       0.00000
      68.8000       0.00000
      68.9000       0.00000
      69.0000       0.00000
      69.1000       0.00000
      69.2000       0.00000
      69.3000       0.00000
      69.4000       0.00000
      69.5000       0.00000
      69.6000       0.00000
      69.7000       0.00000
      69.8000       0.00000
      69.9000       0.00000
      70.0000       0.00000
      70.1000       0.00000
      70.2000       0.00000
      70.3000       0.00000
      70.4000       0.00000
      70.5000       0.00000
      70.6000       0.00000
      70.7000       0.00000
      70.8000       0.00000
      70.9000       0.00000
      71.0000       0.00000
      71.1000       0.00000
      71.2000       0.00000
      71.3000       0.00000
      71.4000       0.00000
      71.5000       0.00000
      71.6000       0.00000
      71.7000       0.00000
      71.8000       0.00000
      71.9000       0.00000
      72.0000       0.00000
