Filter Be-thin
observation_date 22-Sept-2006 22:40:45
wavelength effective area 
      1.00000   2.78442e-10
      1.10000   7.94913e-10
      1.20000   2.06660e-09
      1.30000   4.94193e-09
      1.40000   1.12143e-08
      1.50000   2.39259e-08
      1.60000   4.84387e-08
      1.70000   9.40434e-08
      1.80000   1.75095e-07
      1.90000   3.14719e-07
      2.00000   5.47171e-07
      2.10000   9.24255e-07
      2.20000   1.52408e-06
      2.30000   2.45009e-06
      2.40000   3.84668e-06
      2.50000   5.87895e-06
      2.60000   8.97203e-06
      2.70000   1.33766e-05
      2.80000   1.95618e-05
      2.90000   2.83126e-05
      3.00000   4.03379e-05
      3.10000   5.67318e-05
      3.20000   7.89165e-05
      3.30000   0.000108658
      3.40000   0.000148046
      3.50000   0.000199755
      3.60000   0.000268277
      3.70000   0.000356469
      3.80000   0.000471676
      3.90000   0.000620635
      4.00000   0.000811526
      4.10000    0.00105618
      4.20000    0.00136969
      4.30000    0.00177117
      4.40000    0.00228412
      4.50000    0.00293743
      4.60000    0.00376477
      4.70000    0.00482473
      4.80000    0.00617648
      4.90000    0.00780497
      5.00000     0.0101218
      5.10000     0.0129408
      5.20000     0.0165928
      5.30000     0.0210943
      5.40000     0.0267719
      5.50000     0.0340348
      5.60000     0.0419381
      5.70000     0.0544387
      5.80000     0.0637245
      5.90000     0.0971425
      6.00000      0.130364
      6.10000      0.166320
      6.20000      0.203869
      6.30000      0.239525
      6.40000      0.269918
      6.50000      0.292042
      6.60000      0.301655
      6.70000      0.310354
      6.80000      0.310050
      6.90000      0.405776
      7.00000      0.440152
      7.10000      0.464253
      7.20000      0.482973
      7.30000      0.497820
      7.40000      0.508658
      7.50000      0.516839
      7.60000      0.522487
      7.70000      0.524239
      7.80000      0.521127
      7.90000      0.518570
      8.00000      0.746783
      8.10000      0.813995
      8.20000      0.823545
      8.30000      0.829275
      8.40000      0.831538
      8.50000      0.832305
      8.60000      0.831337
      8.70000      0.829216
      8.80000      0.825686
      8.90000      0.821185
      9.00000      0.815666
      9.10000      0.809193
      9.20000      0.801949
      9.30000      0.793871
      9.40000      0.785094
      9.50000      0.775683
      9.60000      0.765612
      9.70000      0.754985
      9.80000      0.743905
      9.90000      0.732409
      10.0000      0.720553
      10.1000      0.708365
      10.2000      0.695877
      10.3000      0.683081
      10.4000      0.670015
      10.5000      0.656710
      10.6000      0.643203
      10.7000      0.629521
      10.8000      0.615690
      10.9000      0.601750
      11.0000      0.587712
      11.1000      0.573615
      11.2000      0.559474
      11.3000      0.545317
      11.4000      0.531149
      11.5000      0.516981
      11.6000      0.502835
      11.7000      0.488692
      11.8000      0.474603
      11.9000      0.460487
      12.0000      0.445903
      12.1000      0.433022
      12.2000      0.427798
      12.3000      0.418082
      12.4000      0.405382
      12.5000      0.392584
      12.6000      0.379863
      12.7000      0.367291
      12.8000      0.354894
      12.9000      0.342680
      13.0000      0.330675
      13.1000      0.318894
      13.2000      0.307365
      13.3000      0.296150
      13.4000      0.285233
      13.5000      0.274599
      13.6000      0.264262
      13.7000      0.254181
      13.8000      0.244350
      13.9000      0.234778
      14.0000      0.225461
      14.1000      0.216377
      14.2000      0.207519
      14.3000      0.198891
      14.4000      0.190495
      14.5000      0.182349
      14.6000      0.174460
      14.7000      0.166800
      14.8000      0.159369
      14.9000      0.152165
      15.0000      0.145184
      15.1000      0.138429
      15.2000      0.131941
      15.3000      0.125680
      15.4000      0.119632
      15.5000      0.113795
      15.6000      0.108169
      15.7000      0.102771
      15.8000     0.0976076
      15.9000     0.0926386
      16.0000     0.0878577
      16.1000     0.0832608
      16.2000     0.0788906
      16.3000     0.0747072
      16.4000     0.0706874
      16.5000     0.0668259
      16.6000     0.0631464
      16.7000     0.0596500
      16.8000     0.0562949
      16.9000     0.0530766
      17.0000     0.0500223
      17.1000     0.0471427
      17.2000     0.0443962
      17.3000     0.0417772
      17.4000     0.0393209
      17.5000     0.0369869
      17.6000     0.0347706
      17.7000     0.0327012
      17.8000     0.0308245
      17.9000     0.0290321
      18.0000     0.0273115
      18.1000     0.0257056
      18.2000     0.0241510
      18.3000     0.0226407
      18.4000     0.0211874
      18.5000     0.0197941
      18.6000     0.0184441
      18.7000     0.0171505
      18.8000     0.0159391
      18.9000     0.0147841
      19.0000     0.0137122
      19.1000     0.0127117
      19.2000     0.0117590
      19.3000     0.0108829
      19.4000     0.0100716
      19.5000    0.00930637
      19.6000    0.00863102
      19.7000    0.00799214
      19.8000    0.00738580
      19.9000    0.00683826
      20.0000    0.00631519
      20.1000    0.00582819
      20.2000    0.00538062
      20.3000    0.00495307
      20.4000    0.00456552
      20.5000    0.00420092
      20.6000    0.00385690
      20.7000    0.00354763
      20.8000    0.00325165
      20.9000    0.00298248
      21.0000    0.00273203
      21.1000    0.00249586
      21.2000    0.00228488
      21.3000    0.00208264
      21.4000    0.00190137
      21.5000    0.00173153
      21.6000    0.00157322
      21.7000    0.00143097
      21.8000    0.00129439
      21.9000    0.00117414
      22.0000    0.00105896
      22.1000   0.000955290
      22.2000   0.000858427
      22.3000   0.000767521
      22.4000   0.000676281
      22.5000   0.000585158
      22.6000   0.000470137
      22.7000   0.000380457
      22.8000   0.000420226
      22.9000   0.000482779
      23.0000   0.000569352
      23.1000   0.000605430
      23.2000   0.000594116
      23.3000   0.000558495
      23.4000   0.000510864
      23.5000   0.000467924
      23.6000   0.000426226
      23.7000   0.000389056
      23.8000   0.000352540
      23.9000   0.000321231
      24.0000   0.000290604
      24.1000   0.000264013
      24.2000   0.000238357
      24.3000   0.000216062
      24.4000   0.000194782
      24.5000   0.000176151
      24.6000   0.000158545
      24.7000   0.000143103
      24.8000   0.000128607
      24.9000   0.000115861
      25.0000   0.000103952
      25.1000   9.34977e-05
      25.2000   8.37411e-05
      25.3000   7.52038e-05
      25.4000   6.72249e-05
      25.5000   6.02956e-05
      25.6000   5.37862e-05
      25.7000   4.81897e-05
      25.8000   4.28870e-05
      25.9000   3.83913e-05
      26.0000   3.40787e-05
      26.1000   3.04847e-05
      26.2000   2.69813e-05
      26.3000   2.41254e-05
      26.4000   2.12855e-05
      26.5000   1.90275e-05
      26.6000   1.67775e-05
      26.7000   1.49537e-05
      26.8000   1.31865e-05
      26.9000   1.17100e-05
      27.0000   1.03278e-05
      27.1000   9.13194e-06
      27.2000   8.05564e-06
      27.3000   7.10216e-06
      27.4000   6.30099e-06
      27.5000   5.54410e-06
      27.6000   4.90864e-06
      27.7000   4.28344e-06
      27.8000   3.79542e-06
      27.9000   3.30902e-06
      28.0000   2.92025e-06
      28.1000   2.55149e-06
      28.2000   2.23715e-06
      28.3000   1.95942e-06
      28.4000   1.70606e-06
      28.5000   1.49829e-06
      28.6000   1.29486e-06
      28.7000   1.14062e-06
      28.8000   9.86895e-07
      28.9000   8.64251e-07
      29.0000   7.50732e-07
      29.1000   6.51423e-07
      29.2000   5.68171e-07
      29.3000   4.88271e-07
      29.4000   4.27667e-07
      29.5000   3.67269e-07
      29.6000   3.20053e-07
      29.7000   2.76415e-07
      29.8000   2.38057e-07
      29.9000   2.06762e-07
      30.0000   1.75923e-07
      30.1000   1.53652e-07
      30.2000   1.31455e-07
      30.3000   1.14880e-07
      30.4000   1.01538e-07
      30.5000   8.85764e-08
      30.6000   7.69040e-08
      30.7000   6.52706e-08
      30.8000   5.63577e-08
      30.9000   4.82809e-08
      31.0000   4.10191e-08
      31.1000   3.55666e-08
      31.2000   3.01323e-08
      31.3000   2.60725e-08
      31.4000   2.23167e-08
      31.5000   1.89456e-08
      31.6000   1.63710e-08
      31.7000   1.38051e-08
      31.8000   1.18949e-08
      31.9000   1.01539e-08
      32.0000   8.57039e-09
      32.1000   7.43219e-09
      32.2000   6.29773e-09
      32.3000   5.41536e-09
      32.4000   4.64556e-09
      32.5000   3.90551e-09
      32.6000   3.38787e-09
      32.7000   2.87192e-09
      32.8000   2.44288e-09
      32.9000   2.09844e-09
      33.0000   1.75515e-09
      33.1000   1.51375e-09
      33.2000   1.28680e-09
      33.3000   1.07856e-09
      33.4000   9.29581e-10
      33.5000   7.81093e-10
      33.6000   6.62055e-10
      33.7000   5.65466e-10
      33.8000   4.69181e-10
      33.9000   4.02797e-10
      34.0000   3.40716e-10
      34.1000   2.82583e-10
      34.2000   2.42938e-10
      34.3000   2.03404e-10
      34.4000   1.70229e-10
      34.5000   1.45216e-10
      34.6000   1.20274e-10
      34.7000   1.01655e-10
      34.8000   8.59995e-11
      34.9000   7.03876e-11
      35.0000   6.01345e-11
      35.1000   5.04600e-11
      35.2000   4.12107e-11
      35.3000   3.52764e-11
      35.4000   2.93585e-11
      35.5000   2.41170e-11
      35.6000   2.05246e-11
      35.7000   1.69422e-11
      35.8000   1.39974e-11
      35.9000   1.18455e-11
      36.0000   9.69962e-12
      36.1000   8.05735e-12
      36.2000   6.78256e-12
      36.3000   5.51122e-12
      36.4000   4.60070e-12
      36.5000   3.85377e-12
      36.6000   3.10891e-12
      36.7000   2.60596e-12
      36.8000   2.17325e-12
      36.9000   1.74174e-12
      37.0000   1.46432e-12
      37.1000   1.21650e-12
      37.2000   9.69349e-13
      37.3000   8.16228e-13
      37.4000   6.75973e-13
      37.5000   5.36103e-13
      37.6000   4.51346e-13
      37.7000   3.72932e-13
      37.8000   2.94731e-13
      37.9000   2.47585e-13
      38.0000   2.04272e-13
      38.1000   1.61074e-13
      38.2000   1.34695e-13
      38.3000   1.11061e-13
      38.4000   8.74901e-14
      38.5000   7.26506e-14
      38.6000   5.99245e-14
      38.7000   4.72321e-14
      38.8000   3.88465e-14
      38.9000   3.20843e-14
      39.0000   2.53397e-14
      39.1000   2.05874e-14
      39.2000   1.70409e-14
      39.3000   1.35035e-14
      39.4000   1.07982e-14
      39.5000   8.94192e-15
      39.6000   7.09058e-15
      39.7000   5.55170e-15
      39.8000   4.61437e-15
      39.9000   3.67943e-15
      40.0000   2.82146e-15
      40.1000   2.35594e-15
      40.2000   1.89160e-15
      40.3000   1.42850e-15
      40.4000   1.19013e-15
      40.5000   9.62903e-16
      40.6000   7.36238e-16
      40.7000   5.94351e-16
      40.8000   4.84801e-16
      40.9000   3.75535e-16
      41.0000   2.93144e-16
      41.1000   2.41180e-16
      41.2000   1.89352e-16
      41.3000   1.42720e-16
      41.4000   1.18474e-16
      41.5000   9.42859e-17
      41.6000   7.01583e-17
      41.7000   5.74189e-17
      41.8000   4.63098e-17
      41.9000   3.52275e-17
      42.0000   2.74288e-17
      42.1000   2.24107e-17
      42.2000   1.74045e-17
      42.3000   1.29020e-17
      42.4000   1.06739e-17
      42.5000   8.45101e-18
      42.6000   6.23340e-18
      42.7000   4.99963e-18
      42.8000   4.02986e-18
      42.9000   3.06225e-18
      43.0000   2.30138e-18
      43.1000   1.88564e-18
      43.2000   1.47088e-18
      43.3000   1.05707e-18
      43.4000   1.06042e-18
      43.5000   1.09545e-18
      43.6000   1.13041e-18
      43.7000   1.06033e-18
      43.8000   8.66224e-19
      43.9000   6.72584e-19
      44.0000   4.79372e-19
      44.1000   3.94605e-19
      44.2000   3.14686e-19
      44.3000   2.34952e-19
      44.4000   1.75711e-19
      44.5000   1.43355e-19
      44.6000   1.11071e-19
      44.7000   7.88606e-20
      44.8000   6.36153e-20
      44.9000   5.07963e-20
      45.0000   3.80054e-20
      45.1000   2.75069e-20
      45.2000   2.25177e-20
      45.3000   1.75399e-20
      45.4000   1.25726e-20
      45.5000   9.68984e-21
      45.6000   7.79158e-21
      45.7000   5.89760e-21
      45.8000   4.05180e-21
      45.9000   3.34278e-21
      46.0000   2.63529e-21
      46.1000   1.92935e-21
      46.2000   1.38827e-21
      46.3000   1.13022e-21
      46.4000   8.72755e-22
      46.5000   6.15831e-22
      46.6000   4.68468e-22
      46.7000   3.75951e-22
      46.8000   2.83637e-22
      46.9000   1.91520e-22
      47.0000   1.55182e-22
      47.1000   1.22699e-22
      47.2000   9.02868e-23
      47.3000   6.16663e-23
      47.4000   5.04733e-23
      47.5000   3.93037e-23
      47.6000   2.81583e-23
      47.7000   1.98750e-23
      47.8000   1.61127e-23
      47.9000   1.23579e-23
      48.0000   8.61141e-24
      48.1000   6.28692e-24
      48.2000   5.05071e-24
      48.3000   3.81705e-24
      48.4000   2.58601e-24
      48.5000   1.95148e-24
      48.6000   1.55475e-24
      48.7000   1.15885e-24
      48.8000   7.63741e-25
      48.9000   5.94248e-25
      49.0000   4.70041e-25
      49.1000   3.46095e-25
      49.2000   2.22400e-25
      49.3000   1.80605e-25
      49.4000   1.45964e-25
      49.5000   1.11394e-25
      49.6000   7.68944e-26
      49.7000   6.92633e-26
      49.8000   6.23098e-26
      49.9000   5.53706e-26
      50.0000   4.84459e-26
      50.1000   4.25020e-26
      50.2000   3.43141e-26
      50.3000   2.77515e-26
      50.4000   2.40125e-26
      50.5000   2.16452e-26
      50.6000   1.93311e-26
      50.7000   1.49449e-26
      50.8000   1.24574e-26
      50.9000   6.82301e-27
      51.0000   4.57248e-27
      51.1000   3.69773e-27
      51.2000   3.70592e-27
      51.3000   3.31996e-27
      51.4000   2.04787e-27
      51.5000   1.23522e-27
      51.6000   8.71355e-28
      51.7000   5.87743e-28
      51.8000   4.44648e-28
      51.9000   3.70102e-28
      52.0000   2.93318e-28
      52.1000   2.02797e-28
      52.2000   1.55188e-28
      52.3000   1.02245e-28
      52.4000   6.67371e-29
      52.5000   5.27511e-29
      52.6000   4.69066e-29
      52.7000   4.00280e-29
      52.8000   2.72155e-29
      52.9000   1.55710e-29
      53.0000   1.04154e-29
      53.1000   6.86959e-30
      53.2000   4.61059e-30
      53.3000   3.06077e-30
      53.4000   2.00613e-30
      53.5000   1.14541e-30
      53.6000   5.79091e-31
      53.7000   3.38390e-31
      53.8000   2.52801e-31
      53.9000   1.73661e-31
      54.0000   1.16797e-31
      54.1000   7.60200e-32
      54.2000   5.38847e-32
      54.3000   3.24657e-32
      54.4000   1.37538e-32
      54.5000   7.51212e-33
      54.6000   5.38260e-33
      54.7000   4.08566e-33
      54.8000   2.87131e-33
      54.9000   1.94730e-33
      55.0000   1.41752e-33
      55.1000   1.02541e-33
      55.2000   7.36200e-34
      55.3000   6.80542e-34
      55.4000   6.06860e-34
      55.5000   4.36120e-34
      55.6000   2.79688e-34
      55.7000   2.01324e-34
      55.8000   1.37513e-34
      55.9000   9.64391e-35
      56.0000   7.05719e-35
      56.1000   4.87855e-35
      56.2000   4.52174e-35
      56.3000   3.68862e-35
      56.4000   2.67237e-35
      56.5000   1.84242e-35
      56.6000   1.26982e-35
      56.7000   9.25484e-36
      56.8000   6.79192e-36
      56.9000   4.81411e-36
      57.0000   3.21562e-36
      57.1000   2.14814e-36
      57.2000   1.47993e-36
      57.3000   1.04789e-36
      57.4000   7.48610e-37
      57.5000   5.31312e-37
      57.6000   3.45607e-37
      57.7000   2.40292e-37
      57.8000   2.17836e-37
      57.9000   1.63161e-37
      58.0000   1.16285e-37
      58.1000   7.67200e-38
      58.2000   4.41761e-38
      58.3000   2.90688e-38
      58.4000   2.19983e-38
      58.5000   1.75458e-38
      58.6000   1.19796e-38
      58.7000   8.09320e-39
      58.8000   5.43447e-39
      58.9000   3.66207e-39
      59.0000   2.66172e-39
      59.1000   1.97578e-39
      59.2000   1.46194e-39
      59.3000   1.07802e-39
      59.4000   7.92008e-40
      59.5000   5.58025e-40
      59.6000   3.69251e-40
      59.7000   2.82856e-40
      59.8000   1.96672e-40
      59.9000   1.16936e-40
      60.0000   8.61462e-41
      60.1000   6.35727e-41
      60.2000   4.67641e-41
      60.3000   3.42814e-41
      60.4000   2.50580e-41
      60.5000   1.84733e-41
      60.6000   1.37355e-41
      60.7000   1.08180e-41
      60.8000   8.93328e-42
      60.9000   7.36102e-42
      61.0000   6.08304e-42
      61.1000   5.04187e-42
      61.2000   4.19549e-42
      61.3000   3.47942e-42
      61.4000   2.87827e-42
      61.5000   2.39622e-42
      61.6000   1.90717e-42
      61.7000   1.50219e-42
      61.8000   1.17849e-42
      61.9000   9.33265e-43
      62.0000   7.16064e-43
      62.1000   5.17079e-43
      62.2000   3.64338e-43
      62.3000   2.64845e-43
      62.4000   2.17201e-43
      62.5000   1.89175e-43
      62.6000   1.62551e-43
      62.7000   1.40130e-43
      62.8000   1.21913e-43
      62.9000   8.96831e-44
      63.0000   6.44597e-44
      63.1000   4.48416e-44
      63.2000   3.50325e-44
      63.3000   2.52234e-44
      63.4000   2.24208e-44
      63.5000   1.54143e-44
      63.6000   1.26117e-44
      63.7000   9.80909e-45
      63.8000   9.80909e-45
      63.9000   7.00649e-45
      64.0000   2.80260e-45
      64.1000   2.80260e-45
      64.2000   2.80260e-45
      64.3000   2.80260e-45
      64.4000       0.00000
      64.5000       0.00000
      64.6000       0.00000
      64.7000       0.00000
      64.8000       0.00000
      64.9000       0.00000
      65.0000       0.00000
      65.1000       0.00000
      65.2000       0.00000
      65.3000       0.00000
      65.4000       0.00000
      65.5000       0.00000
      65.6000       0.00000
      65.7000       0.00000
      65.8000       0.00000
      65.9000       0.00000
      66.0000       0.00000
      66.1000       0.00000
      66.2000       0.00000
      66.3000       0.00000
      66.4000       0.00000
      66.5000       0.00000
      66.6000       0.00000
      66.7000       0.00000
      66.8000       0.00000
      66.9000       0.00000
      67.0000       0.00000
      67.1000       0.00000
      67.2000       0.00000
      67.3000       0.00000
      67.4000       0.00000
      67.5000       0.00000
      67.6000       0.00000
      67.7000       0.00000
      67.8000       0.00000
      67.9000       0.00000
      68.0000       0.00000
      68.1000       0.00000
      68.2000       0.00000
      68.3000       0.00000
      68.4000       0.00000
      68.5000       0.00000
      68.6000       0.00000
      68.7000       0.00000
      68.8000       0.00000
      68.9000       0.00000
      69.0000       0.00000
      69.1000       0.00000
      69.2000       0.00000
      69.3000       0.00000
      69.4000       0.00000
      69.5000       0.00000
      69.6000       0.00000
      69.7000       0.00000
      69.8000       0.00000
      69.9000       0.00000
      70.0000       0.00000
      70.1000       0.00000
      70.2000       0.00000
      70.3000       0.00000
      70.4000       0.00000
      70.5000       0.00000
      70.6000       0.00000
      70.7000       0.00000
      70.8000       0.00000
      70.9000       0.00000
      71.0000       0.00000
      71.1000       0.00000
      71.2000       0.00000
      71.3000       0.00000
      71.4000       0.00000
      71.5000       0.00000
      71.6000       0.00000
      71.7000       0.00000
      71.8000       0.00000
      71.9000       0.00000
      72.0000       0.00000
