Filter Be-thin
observation_date 22-Sept-2008 22:40:45
wavelength effective area 
      1.00000   2.78438e-10
      1.10000   7.94899e-10
      1.20000   2.06655e-09
      1.30000   4.94179e-09
      1.40000   1.12139e-08
      1.50000   2.39249e-08
      1.60000   4.84360e-08
      1.70000   9.40371e-08
      1.80000   1.75081e-07
      1.90000   3.14690e-07
      2.00000   5.47111e-07
      2.10000   9.24137e-07
      2.20000   1.52386e-06
      2.30000   2.44968e-06
      2.40000   3.84594e-06
      2.50000   5.87766e-06
      2.60000   8.96982e-06
      2.70000   1.33729e-05
      2.80000   1.95558e-05
      2.90000   2.83029e-05
      3.00000   4.03226e-05
      3.10000   5.67080e-05
      3.20000   7.88799e-05
      3.30000   0.000108603
      3.40000   0.000147963
      3.50000   0.000199633
      3.60000   0.000268099
      3.70000   0.000356213
      3.80000   0.000471310
      3.90000   0.000620113
      4.00000   0.000810790
      4.10000    0.00105515
      4.20000    0.00136826
      4.30000    0.00176918
      4.40000    0.00228138
      4.50000    0.00293365
      4.60000    0.00375961
      4.70000    0.00481768
      4.80000    0.00616688
      4.90000    0.00779208
      5.00000     0.0101041
      5.10000     0.0129168
      5.20000     0.0165602
      5.30000     0.0210505
      5.40000     0.0267132
      5.50000     0.0339560
      5.60000     0.0418358
      5.70000     0.0542989
      5.80000     0.0635523
      5.90000     0.0968668
      6.00000      0.129976
      6.10000      0.165800
      6.20000      0.203201
      6.30000      0.238703
      6.40000      0.268950
      6.50000      0.290946
      6.60000      0.300472
      6.70000      0.309083
      6.80000      0.308725
      6.90000      0.403968
      7.00000      0.438107
      7.10000      0.462006
      7.20000      0.480540
      7.30000      0.495212
      7.40000      0.505888
      7.50000      0.513915
      7.60000      0.519417
      7.70000      0.521042
      7.80000      0.517830
      7.90000      0.515168
      8.00000      0.741705
      8.10000      0.808261
      8.20000      0.817537
      8.30000      0.823013
      8.40000      0.825043
      8.50000      0.825584
      8.60000      0.824399
      8.70000      0.822068
      8.80000      0.818335
      8.90000      0.813638
      9.00000      0.807931
      9.10000      0.801278
      9.20000      0.793860
      9.30000      0.785617
      9.40000      0.776682
      9.50000      0.767122
      9.60000      0.756910
      9.70000      0.746151
      9.80000      0.734947
      9.90000      0.723336
      10.0000      0.711375
      10.1000      0.699091
      10.2000      0.686516
      10.3000      0.673642
      10.4000      0.660507
      10.5000      0.647142
      10.6000      0.633585
      10.7000      0.619861
      10.8000      0.605997
      10.9000      0.592033
      11.0000      0.577981
      11.1000      0.563878
      11.2000      0.549740
      11.3000      0.535595
      11.4000      0.521447
      11.5000      0.507308
      11.6000      0.493201
      11.7000      0.479106
      11.8000      0.465074
      11.9000      0.451026
      12.0000      0.436531
      12.1000      0.423716
      12.2000      0.418398
      12.3000      0.408690
      12.4000      0.396074
      12.5000      0.383373
      12.6000      0.370756
      12.7000      0.358295
      12.8000      0.346016
      12.9000      0.333926
      13.0000      0.322050
      13.1000      0.310403
      13.2000      0.299012
      13.3000      0.287937
      13.4000      0.277163
      13.5000      0.266675
      13.6000      0.256488
      13.7000      0.246557
      13.8000      0.236880
      13.9000      0.227464
      14.0000      0.218303
      14.1000      0.209378
      14.2000      0.200681
      14.3000      0.192215
      14.4000      0.183983
      14.5000      0.176001
      14.6000      0.168275
      14.7000      0.160780
      14.8000      0.153513
      14.9000      0.146473
      15.0000      0.139657
      15.1000      0.133066
      15.2000      0.126738
      15.3000      0.120637
      15.4000      0.114749
      15.5000      0.109070
      15.6000      0.103601
      15.7000     0.0983567
      15.8000     0.0933447
      15.9000     0.0885251
      16.0000     0.0838920
      16.1000     0.0794409
      16.2000     0.0752124
      16.3000     0.0711678
      16.4000     0.0672849
      16.5000     0.0635581
      16.6000     0.0600098
      16.7000     0.0566405
      16.8000     0.0534104
      16.9000     0.0503149
      17.0000     0.0473795
      17.1000     0.0446139
      17.2000     0.0419785
      17.3000     0.0394678
      17.4000     0.0371151
      17.5000     0.0348825
      17.6000     0.0327643
      17.7000     0.0307887
      17.8000     0.0289984
      17.9000     0.0272901
      18.0000     0.0256516
      18.1000     0.0241233
      18.2000     0.0226454
      18.3000     0.0212108
      18.4000     0.0198319
      18.5000     0.0185112
      18.6000     0.0172328
      18.7000     0.0160092
      18.8000     0.0148643
      18.9000     0.0137741
      19.0000     0.0127632
      19.1000     0.0118205
      19.2000     0.0109239
      19.3000     0.0101002
      19.4000    0.00933801
      19.5000    0.00862000
      19.6000    0.00798654
      19.7000    0.00738800
      19.8000    0.00682066
      19.9000    0.00630865
      20.0000    0.00582020
      20.1000    0.00536589
      20.2000    0.00494874
      20.3000    0.00455079
      20.4000    0.00419034
      20.5000    0.00385166
      20.6000    0.00353250
      20.7000    0.00324578
      20.8000    0.00297179
      20.9000    0.00272285
      21.0000    0.00249148
      21.1000    0.00227361
      21.2000    0.00207912
      21.3000    0.00189298
      21.4000    0.00172628
      21.5000    0.00157031
      21.6000    0.00142512
      21.7000    0.00129477
      21.8000    0.00116983
      21.9000    0.00105992
      22.0000   0.000954824
      22.1000   0.000860327
      22.2000   0.000772171
      22.3000   0.000689571
      22.4000   0.000606863
      22.5000   0.000524455
      22.6000   0.000420850
      22.7000   0.000341758
      22.8000   0.000383069
      22.9000   0.000444456
      23.0000   0.000524171
      23.1000   0.000557115
      23.2000   0.000545836
      23.3000   0.000512633
      23.4000   0.000468477
      23.5000   0.000428697
      23.6000   0.000390125
      23.7000   0.000355765
      23.8000   0.000322065
      23.9000   0.000293180
      24.0000   0.000264970
      24.1000   0.000240490
      24.2000   0.000216907
      24.3000   0.000196423
      24.4000   0.000176902
      24.5000   0.000159821
      24.6000   0.000143702
      24.7000   0.000129574
      24.8000   0.000116330
      24.9000   0.000104694
      25.0000   9.38352e-05
      25.1000   8.43108e-05
      25.2000   7.54340e-05
      25.3000   6.76724e-05
      25.4000   6.04286e-05
      25.5000   5.41422e-05
      25.6000   4.82461e-05
      25.7000   4.31803e-05
      25.8000   3.83880e-05
      25.9000   3.43273e-05
      26.0000   3.04384e-05
      26.1000   2.71989e-05
      26.2000   2.40470e-05
      26.3000   2.14782e-05
      26.4000   1.89291e-05
      26.5000   1.69024e-05
      26.6000   1.48871e-05
      26.7000   1.32540e-05
      26.8000   1.16745e-05
      26.9000   1.03557e-05
      27.0000   9.12295e-06
      27.1000   8.05736e-06
      27.2000   7.09955e-06
      27.3000   6.25201e-06
      27.4000   5.54030e-06
      27.5000   4.86911e-06
      27.6000   4.30596e-06
      27.7000   3.75309e-06
      27.8000   3.32155e-06
      27.9000   2.89243e-06
      28.0000   2.54954e-06
      28.1000   2.22490e-06
      28.2000   1.94844e-06
      28.3000   1.70447e-06
      28.4000   1.48226e-06
      28.5000   1.30014e-06
      28.6000   1.12223e-06
      28.7000   9.87322e-07
      28.8000   8.53192e-07
      28.9000   7.46225e-07
      29.0000   6.47390e-07
      29.1000   5.61038e-07
      29.2000   4.88713e-07
      29.3000   4.19448e-07
      29.4000   3.66913e-07
      29.5000   3.14688e-07
      29.6000   2.73875e-07
      29.7000   2.36224e-07
      29.8000   2.03176e-07
      29.9000   1.76233e-07
      30.0000   1.49749e-07
      30.1000   1.30616e-07
      30.2000   1.11597e-07
      30.3000   9.73944e-08
      30.4000   8.59672e-08
      30.5000   7.48911e-08
      30.6000   6.49333e-08
      30.7000   5.50349e-08
      30.8000   4.74542e-08
      30.9000   4.05970e-08
      31.0000   3.44429e-08
      31.1000   2.98227e-08
      31.2000   2.52305e-08
      31.3000   2.18003e-08
      31.4000   1.86334e-08
      31.5000   1.57960e-08
      31.6000   1.36299e-08
      31.7000   1.14771e-08
      31.8000   9.87473e-09
      31.9000   8.41713e-09
      32.0000   7.09411e-09
      32.1000   6.14295e-09
      32.2000   5.19760e-09
      32.3000   4.46276e-09
      32.4000   3.82269e-09
      32.5000   3.20894e-09
      32.6000   2.77957e-09
      32.7000   2.35286e-09
      32.8000   1.99848e-09
      32.9000   1.71419e-09
      33.0000   1.43166e-09
      33.1000   1.23302e-09
      33.2000   1.04672e-09
      33.3000   8.76131e-10
      33.4000   7.54059e-10
      33.5000   6.32725e-10
      33.6000   5.35546e-10
      33.7000   4.56771e-10
      33.8000   3.78458e-10
      33.9000   3.24450e-10
      34.0000   2.74054e-10
      34.1000   2.26970e-10
      34.2000   1.94848e-10
      34.3000   1.62905e-10
      34.4000   1.36139e-10
      34.5000   1.15966e-10
      34.6000   9.59087e-11
      34.7000   8.09434e-11
      34.8000   6.83775e-11
      34.9000   5.58824e-11
      35.0000   4.76719e-11
      35.1000   3.99432e-11
      35.2000   3.25732e-11
      35.3000   2.78412e-11
      35.4000   2.31359e-11
      35.5000   1.89768e-11
      35.6000   1.61258e-11
      35.7000   1.32910e-11
      35.8000   1.09642e-11
      35.9000   9.26459e-12
      36.0000   7.57464e-12
      36.1000   6.28253e-12
      36.2000   5.28041e-12
      36.3000   4.28403e-12
      36.4000   3.57073e-12
      36.5000   2.98637e-12
      36.6000   2.40541e-12
      36.7000   2.01312e-12
      36.8000   1.67622e-12
      36.9000   1.34128e-12
      37.0000   1.12587e-12
      37.1000   9.33847e-13
      37.2000   7.42938e-13
      37.3000   6.24583e-13
      37.4000   5.16432e-13
      37.5000   4.08916e-13
      37.6000   3.43713e-13
      37.7000   2.83539e-13
      37.8000   2.23721e-13
      37.9000   1.87628e-13
      38.0000   1.54552e-13
      38.1000   1.21669e-13
      38.2000   1.01577e-13
      38.3000   8.36160e-14
      38.4000   6.57609e-14
      38.5000   5.45164e-14
      38.6000   4.48921e-14
      38.7000   3.53246e-14
      38.8000   2.90045e-14
      38.9000   2.39153e-14
      39.0000   1.88561e-14
      39.1000   1.52939e-14
      39.2000   1.26379e-14
      39.3000   9.99746e-15
      39.4000   7.98089e-15
      39.5000   6.59763e-15
      39.6000   5.22268e-15
      39.7000   4.08216e-15
      39.8000   3.38708e-15
      39.9000   2.69613e-15
      40.0000   2.06385e-15
      40.1000   1.72033e-15
      40.2000   1.37886e-15
      40.3000   1.03946e-15
      40.4000   8.64489e-16
      40.5000   6.98201e-16
      40.6000   5.32902e-16
      40.7000   4.29439e-16
      40.8000   3.49662e-16
      40.9000   2.70370e-16
      41.0000   2.10674e-16
      41.1000   1.73017e-16
      41.2000   1.35592e-16
      41.3000   1.02015e-16
      41.4000   8.45307e-17
      41.5000   6.71504e-17
      41.6000   4.98756e-17
      41.7000   4.07446e-17
      41.8000   3.28013e-17
      41.9000   2.49059e-17
      42.0000   1.93564e-17
      42.1000   1.57859e-17
      42.2000   1.22368e-17
      42.3000   9.05435e-18
      42.4000   7.47676e-18
      42.5000   5.90860e-18
      42.6000   4.34996e-18
      42.7000   3.48241e-18
      42.8000   2.80163e-18
      42.9000   2.12490e-18
      43.0000   1.59390e-18
      43.1000   1.30348e-18
      43.2000   1.01483e-18
      43.3000   7.27925e-19
      43.4000   7.28829e-19
      43.5000   7.95093e-19
      43.6000   9.01800e-19
      43.7000   9.53475e-19
      43.8000   8.60772e-19
      43.9000   6.83553e-19
      44.0000   4.84936e-19
      44.1000   3.86629e-19
      44.2000   3.07469e-19
      44.3000   2.29527e-19
      44.4000   1.71627e-19
      44.5000   1.40000e-19
      44.6000   1.08455e-19
      44.7000   7.69905e-20
      44.8000   6.20966e-20
      44.9000   4.95756e-20
      45.0000   3.70861e-20
      45.1000   2.68372e-20
      45.2000   2.19658e-20
      45.3000   1.71072e-20
      45.4000   1.22604e-20
      45.5000   9.44767e-21
      45.6000   7.59558e-21
      45.7000   5.74828e-21
      45.8000   3.94854e-21
      45.9000   3.25704e-21
      46.0000   2.56726e-21
      46.1000   1.87922e-21
      46.2000   1.35197e-21
      46.3000   1.10047e-21
      46.4000   8.49637e-22
      46.5000   5.99415e-22
      46.6000   4.55900e-22
      46.7000   3.65801e-22
      46.8000   2.75931e-22
      46.9000   1.86283e-22
      47.0000   1.50912e-22
      47.1000   1.19302e-22
      47.2000   8.77712e-23
      47.3000   5.99374e-23
      47.4000   4.90493e-23
      47.5000   3.81879e-23
      47.6000   2.73539e-23
      47.7000   1.93038e-23
      47.8000   1.56467e-23
      47.9000   1.19982e-23
      48.0000   8.35925e-24
      48.1000   6.10169e-24
      48.2000   4.90098e-24
      48.3000   3.70319e-24
      48.4000   2.50840e-24
      48.5000   1.89256e-24
      48.6000   1.50752e-24
      48.7000   1.12343e-24
      48.8000   7.40254e-25
      48.9000   5.75863e-25
      49.0000   4.55411e-25
      49.1000   3.35257e-25
      49.2000   2.15393e-25
      49.3000   1.74881e-25
      49.4000   1.41310e-25
      49.5000   1.07821e-25
      49.6000   7.44130e-26
      49.7000   6.70148e-26
      49.8000   6.02749e-26
      49.9000   5.35515e-26
      50.0000   4.68447e-26
      50.1000   4.10890e-26
      50.2000   3.31674e-26
      50.3000   2.68193e-26
      50.4000   2.32016e-26
      50.5000   2.09105e-26
      50.6000   1.86716e-26
      50.7000   1.44324e-26
      50.8000   1.20280e-26
      50.9000   6.58664e-27
      51.0000   4.41330e-27
      51.1000   3.56837e-27
      51.2000   3.57564e-27
      51.3000   3.20268e-27
      51.4000   1.97518e-27
      51.5000   1.19116e-27
      51.6000   8.40123e-28
      51.7000   5.66574e-28
      51.8000   4.28552e-28
      51.9000   3.56636e-28
      52.0000   2.82591e-28
      52.1000   1.95343e-28
      52.2000   1.49455e-28
      52.3000   9.84488e-29
      52.4000   6.42467e-29
      52.5000   5.07727e-29
      52.6000   4.51385e-29
      52.7000   3.85115e-29
      52.8000   2.61792e-29
      52.9000   1.49752e-29
      53.0000   1.00149e-29
      53.1000   6.60406e-30
      53.2000   4.43149e-30
      53.3000   2.94128e-30
      53.4000   1.92743e-30
      53.5000   1.10025e-30
      53.6000   5.56147e-31
      53.7000   3.24917e-31
      53.8000   2.42686e-31
      53.9000   1.66679e-31
      54.0000   1.12078e-31
      54.1000   7.29333e-32
      54.2000   5.16860e-32
      54.3000   3.11345e-32
      54.4000   1.31871e-32
      54.5000   7.20109e-33
      54.6000   5.15865e-33
      54.7000   3.91485e-33
      54.8000   2.75069e-33
      54.9000   1.86510e-33
      55.0000   1.35739e-33
      55.1000   9.81704e-34
      55.2000   7.04671e-34
      55.3000   6.51256e-34
      55.4000   5.80621e-34
      55.5000   4.17174e-34
      55.6000   2.67480e-34
      55.7000   1.92495e-34
      55.8000   1.31454e-34
      55.9000   9.21694e-35
      56.0000   6.74327e-35
      56.1000   4.66051e-35
      56.2000   4.31866e-35
      56.3000   3.52216e-35
      56.4000   2.55119e-35
      56.5000   1.75848e-35
      56.6000   1.21169e-35
      56.7000   8.82909e-36
      56.8000   6.47797e-36
      56.9000   4.59051e-36
      57.0000   3.06555e-36
      57.1000   2.04741e-36
      57.2000   1.41019e-36
      57.3000   9.98278e-37
      57.4000   7.12994e-37
      57.5000   5.05914e-37
      57.6000   3.29007e-37
      57.7000   2.28696e-37
      57.8000   2.07274e-37
      57.9000   1.55212e-37
      58.0000   1.10593e-37
      58.1000   7.29475e-38
      58.2000   4.19937e-38
      58.3000   2.76260e-38
      58.4000   2.09014e-38
      58.5000   1.66669e-38
      58.6000   1.13767e-38
      58.7000   7.68403e-39
      58.8000   5.15845e-39
      58.9000   3.47522e-39
      59.0000   2.52528e-39
      59.1000   1.87403e-39
      59.2000   1.38631e-39
      59.3000   1.02200e-39
      59.4000   7.50656e-40
      59.5000   5.28756e-40
      59.6000   3.49794e-40
      59.7000   2.67885e-40
      59.8000   1.86212e-40
      59.9000   1.10690e-40
      60.0000   8.15219e-41
      60.1000   6.01451e-41
      60.2000   4.42306e-41
      60.3000   3.24162e-41
      60.4000   2.36875e-41
      60.5000   1.74602e-41
      60.6000   1.29774e-41
      60.7000   1.02169e-41
      60.8000   8.43722e-42
      60.9000   6.94904e-42
      61.0000   5.74112e-42
      61.1000   4.75741e-42
      61.2000   3.95867e-42
      61.3000   3.28184e-42
      61.4000   2.71572e-42
      61.5000   2.25889e-42
      61.6000   1.79927e-42
      61.7000   1.41251e-42
      61.8000   1.11123e-42
      61.9000   8.78614e-43
      62.0000   6.74025e-43
      62.1000   4.86251e-43
      62.2000   3.41917e-43
      62.3000   2.49431e-43
      62.4000   2.04590e-43
      62.5000   1.79366e-43
      62.6000   1.52742e-43
      62.7000   1.30321e-43
      62.8000   1.14906e-43
      62.9000   8.26766e-44
      63.0000   6.02558e-44
      63.1000   4.20390e-44
      63.2000   3.50325e-44
      63.3000   2.52234e-44
      63.4000   2.24208e-44
      63.5000   1.54143e-44
      63.6000   1.26117e-44
      63.7000   9.80909e-45
      63.8000   9.80909e-45
      63.9000   7.00649e-45
      64.0000   2.80260e-45
      64.1000   2.80260e-45
      64.2000   2.80260e-45
      64.3000   2.80260e-45
      64.4000       0.00000
      64.5000       0.00000
      64.6000       0.00000
      64.7000       0.00000
      64.8000       0.00000
      64.9000       0.00000
      65.0000       0.00000
      65.1000       0.00000
      65.2000       0.00000
      65.3000       0.00000
      65.4000       0.00000
      65.5000       0.00000
      65.6000       0.00000
      65.7000       0.00000
      65.8000       0.00000
      65.9000       0.00000
      66.0000       0.00000
      66.1000       0.00000
      66.2000       0.00000
      66.3000       0.00000
      66.4000       0.00000
      66.5000       0.00000
      66.6000       0.00000
      66.7000       0.00000
      66.8000       0.00000
      66.9000       0.00000
      67.0000       0.00000
      67.1000       0.00000
      67.2000       0.00000
      67.3000       0.00000
      67.4000       0.00000
      67.5000       0.00000
      67.6000       0.00000
      67.7000       0.00000
      67.8000       0.00000
      67.9000       0.00000
      68.0000       0.00000
      68.1000       0.00000
      68.2000       0.00000
      68.3000       0.00000
      68.4000       0.00000
      68.5000       0.00000
      68.6000       0.00000
      68.7000       0.00000
      68.8000       0.00000
      68.9000       0.00000
      69.0000       0.00000
      69.1000       0.00000
      69.2000       0.00000
      69.3000       0.00000
      69.4000       0.00000
      69.5000       0.00000
      69.6000       0.00000
      69.7000       0.00000
      69.8000       0.00000
      69.9000       0.00000
      70.0000       0.00000
      70.1000       0.00000
      70.2000       0.00000
      70.3000       0.00000
      70.4000       0.00000
      70.5000       0.00000
      70.6000       0.00000
      70.7000       0.00000
      70.8000       0.00000
      70.9000       0.00000
      71.0000       0.00000
      71.1000       0.00000
      71.2000       0.00000
      71.3000       0.00000
      71.4000       0.00000
      71.5000       0.00000
      71.6000       0.00000
      71.7000       0.00000
      71.8000       0.00000
      71.9000       0.00000
      72.0000       0.00000
