Filter Be-thin
observation_date 22-Sept-2019 22:40:45
wavelength effective area 
      1.00000   2.78437e-10
      1.10000   7.94896e-10
      1.20000   2.06654e-09
      1.30000   4.94176e-09
      1.40000   1.12138e-08
      1.50000   2.39246e-08
      1.60000   4.84354e-08
      1.70000   9.40358e-08
      1.80000   1.75078e-07
      1.90000   3.14683e-07
      2.00000   5.47098e-07
      2.10000   9.24111e-07
      2.20000   1.52381e-06
      2.30000   2.44959e-06
      2.40000   3.84577e-06
      2.50000   5.87738e-06
      2.60000   8.96933e-06
      2.70000   1.33721e-05
      2.80000   1.95544e-05
      2.90000   2.83007e-05
      3.00000   4.03191e-05
      3.10000   5.67026e-05
      3.20000   7.88717e-05
      3.30000   0.000108590
      3.40000   0.000147945
      3.50000   0.000199606
      3.60000   0.000268060
      3.70000   0.000356156
      3.80000   0.000471228
      3.90000   0.000619997
      4.00000   0.000810627
      4.10000    0.00105492
      4.20000    0.00136794
      4.30000    0.00176873
      4.40000    0.00228076
      4.50000    0.00293281
      4.60000    0.00375846
      4.70000    0.00481611
      4.80000    0.00616475
      4.90000    0.00778922
      5.00000     0.0101002
      5.10000     0.0129115
      5.20000     0.0165529
      5.30000     0.0210408
      5.40000     0.0267001
      5.50000     0.0339385
      5.60000     0.0418131
      5.70000     0.0542679
      5.80000     0.0635141
      5.90000     0.0968056
      6.00000      0.129889
      6.10000      0.165685
      6.20000      0.203053
      6.30000      0.238521
      6.40000      0.268735
      6.50000      0.290703
      6.60000      0.300209
      6.70000      0.308801
      6.80000      0.308431
      6.90000      0.403566
      7.00000      0.437653
      7.10000      0.461508
      7.20000      0.480000
      7.30000      0.494634
      7.40000      0.505274
      7.50000      0.513266
      7.60000      0.518736
      7.70000      0.520333
      7.80000      0.517099
      7.90000      0.514414
      8.00000      0.740580
      8.10000      0.806990
      8.20000      0.816206
      8.30000      0.821626
      8.40000      0.823605
      8.50000      0.824095
      8.60000      0.822863
      8.70000      0.820485
      8.80000      0.816708
      8.90000      0.811968
      9.00000      0.806220
      9.10000      0.799527
      9.20000      0.792071
      9.30000      0.783791
      9.40000      0.774822
      9.50000      0.765229
      9.60000      0.754987
      9.70000      0.744199
      9.80000      0.732968
      9.90000      0.721332
      10.0000      0.709348
      10.1000      0.697043
      10.2000      0.684450
      10.3000      0.671558
      10.4000      0.658409
      10.5000      0.645032
      10.6000      0.631463
      10.7000      0.617731
      10.8000      0.603861
      10.9000      0.589892
      11.0000      0.575837
      11.1000      0.561733
      11.2000      0.547596
      11.3000      0.533454
      11.4000      0.519312
      11.5000      0.505181
      11.6000      0.491082
      11.7000      0.476998
      11.8000      0.462979
      11.9000      0.448947
      12.0000      0.434472
      12.1000      0.421672
      12.2000      0.416334
      12.3000      0.406629
      12.4000      0.394032
      12.5000      0.381352
      12.6000      0.368759
      12.7000      0.356324
      12.8000      0.344070
      12.9000      0.332008
      13.0000      0.320161
      13.1000      0.308544
      13.2000      0.297183
      13.3000      0.286140
      13.4000      0.275398
      13.5000      0.264943
      13.6000      0.254788
      13.7000      0.244892
      13.8000      0.235249
      13.9000      0.225867
      14.0000      0.216741
      14.1000      0.207852
      14.2000      0.199190
      14.3000      0.190760
      14.4000      0.182565
      14.5000      0.174619
      14.6000      0.166929
      14.7000      0.159470
      14.8000      0.152240
      14.9000      0.145235
      15.0000      0.138456
      15.1000      0.131900
      15.2000      0.125609
      15.3000      0.119543
      15.4000      0.113690
      15.5000      0.108046
      15.6000      0.102611
      15.7000     0.0974004
      15.8000     0.0924215
      15.9000     0.0876348
      16.0000     0.0830340
      16.1000     0.0786148
      16.2000     0.0744174
      16.3000     0.0704032
      16.4000     0.0665502
      16.5000     0.0628529
      16.6000     0.0593331
      16.7000     0.0559917
      16.8000     0.0527888
      16.9000     0.0497201
      17.0000     0.0468105
      17.1000     0.0440698
      17.2000     0.0414586
      17.3000     0.0389715
      17.4000     0.0366412
      17.5000     0.0344307
      17.6000     0.0323338
      17.7000     0.0303785
      17.8000     0.0286070
      17.9000     0.0269168
      18.0000     0.0252962
      18.1000     0.0237846
      18.2000     0.0223233
      18.3000     0.0209051
      18.4000     0.0195422
      18.5000     0.0182372
      18.6000     0.0169742
      18.7000     0.0157657
      18.8000     0.0146351
      18.9000     0.0135589
      19.0000     0.0125611
      19.1000     0.0116308
      19.2000     0.0107463
      19.3000    0.00993376
      19.4000    0.00918215
      19.5000    0.00847426
      19.6000    0.00784978
      19.7000    0.00725988
      19.8000    0.00670088
      19.9000    0.00619648
      20.0000    0.00571542
      20.1000    0.00526810
      20.2000    0.00485744
      20.3000    0.00446580
      20.4000    0.00411113
      20.5000    0.00377797
      20.6000    0.00346410
      20.7000    0.00318218
      20.8000    0.00291286
      20.9000    0.00266821
      21.0000    0.00244090
      21.1000    0.00222690
      21.2000    0.00203591
      21.3000    0.00185318
      21.4000    0.00168956
      21.5000    0.00153652
      21.6000    0.00139410
      21.7000    0.00126627
      21.8000    0.00114379
      21.9000    0.00103605
      22.0000   0.000933077
      22.1000   0.000840511
      22.2000   0.000754185
      22.3000   0.000673329
      22.4000   0.000592410
      22.5000   0.000511826
      22.6000   0.000410603
      22.7000   0.000333697
      22.8000   0.000375259
      22.9000   0.000436347
      23.0000   0.000514613
      23.1000   0.000546897
      23.2000   0.000535636
      23.3000   0.000502950
      23.4000   0.000459532
      23.5000   0.000420424
      23.6000   0.000382516
      23.7000   0.000348752
      23.8000   0.000315649
      23.9000   0.000287278
      24.0000   0.000259580
      24.1000   0.000235546
      24.2000   0.000212402
      24.3000   0.000192301
      24.4000   0.000173151
      24.5000   0.000156397
      24.6000   0.000140592
      24.7000   0.000126742
      24.8000   0.000113761
      24.9000   0.000102358
      25.0000   9.17211e-05
      25.1000   8.23922e-05
      25.2000   7.37003e-05
      25.3000   6.61017e-05
      25.4000   5.90121e-05
      25.5000   5.28605e-05
      25.6000   4.70929e-05
      25.7000   4.21383e-05
      25.8000   3.74528e-05
      25.9000   3.34830e-05
      26.0000   2.96826e-05
      26.1000   2.65172e-05
      26.2000   2.34386e-05
      26.3000   2.09298e-05
      26.4000   1.84412e-05
      26.5000   1.64627e-05
      26.6000   1.44962e-05
      26.7000   1.29028e-05
      26.8000   1.13623e-05
      26.9000   1.00762e-05
      27.0000   8.87453e-06
      27.1000   7.83596e-06
      27.2000   6.90270e-06
      27.3000   6.07710e-06
      27.4000   5.38391e-06
      27.5000   4.73043e-06
      27.6000   4.18223e-06
      27.7000   3.64429e-06
      27.8000   3.22440e-06
      27.9000   2.80709e-06
      28.0000   2.47366e-06
      28.1000   2.15811e-06
      28.2000   1.88943e-06
      28.3000   1.65241e-06
      28.4000   1.43659e-06
      28.5000   1.25974e-06
      28.6000   1.08705e-06
      28.7000   9.56110e-07
      28.8000   8.25991e-07
      28.9000   7.22233e-07
      29.0000   6.26399e-07
      29.1000   5.42693e-07
      29.2000   4.72600e-07
      29.3000   4.05502e-07
      29.4000   3.54613e-07
      29.5000   3.04051e-07
      29.6000   2.64541e-07
      29.7000   2.28106e-07
      29.8000   1.96136e-07
      29.9000   1.70077e-07
      30.0000   1.44475e-07
      30.1000   1.25979e-07
      30.2000   1.07603e-07
      30.3000   9.38805e-08
      30.4000   8.28405e-08
      30.5000   7.21454e-08
      30.6000   6.25335e-08
      30.7000   5.29848e-08
      30.8000   4.56724e-08
      30.9000   3.90606e-08
      31.0000   3.31292e-08
      31.1000   2.86763e-08
      31.2000   2.42529e-08
      31.3000   2.09491e-08
      31.4000   1.79002e-08
      31.5000   1.51696e-08
      31.6000   1.30853e-08
      31.7000   1.10149e-08
      31.8000   9.47403e-09
      31.9000   8.07296e-09
      32.0000   6.80182e-09
      32.1000   5.88792e-09
      32.2000   4.98018e-09
      32.3000   4.27467e-09
      32.4000   3.66036e-09
      32.5000   3.07166e-09
      32.6000   2.65980e-09
      32.7000   2.25076e-09
      32.8000   1.91114e-09
      32.9000   1.63875e-09
      33.0000   1.36820e-09
      33.1000   1.17799e-09
      33.2000   9.99698e-10
      33.3000   8.36521e-10
      33.4000   7.19745e-10
      33.5000   6.03744e-10
      33.6000   5.10858e-10
      33.7000   4.35577e-10
      33.8000   3.60785e-10
      33.9000   3.09201e-10
      34.0000   2.61091e-10
      34.1000   2.16165e-10
      34.2000   1.85513e-10
      34.3000   1.55051e-10
      34.4000   1.29534e-10
      34.5000   1.10304e-10
      34.6000   9.11965e-11
      34.7000   7.69414e-11
      34.8000   6.49756e-11
      34.9000   5.30847e-11
      35.0000   4.52703e-11
      35.1000   3.79185e-11
      35.2000   3.09119e-11
      35.3000   2.64124e-11
      35.4000   2.19413e-11
      35.5000   1.79910e-11
      35.6000   1.52830e-11
      35.7000   1.25922e-11
      35.8000   1.03842e-11
      35.9000   8.77148e-12
      36.0000   7.16904e-12
      36.1000   5.94409e-12
      36.2000   4.99424e-12
      36.3000   4.05047e-12
      36.4000   3.37489e-12
      36.5000   2.82161e-12
      36.6000   2.27191e-12
      36.7000   1.90074e-12
      36.8000   1.58209e-12
      36.9000   1.26551e-12
      37.0000   1.06189e-12
      37.1000   8.80474e-13
      37.2000   7.00229e-13
      37.3000   5.88470e-13
      37.4000   4.86399e-13
      37.5000   3.84998e-13
      37.6000   3.23493e-13
      37.7000   2.66764e-13
      37.8000   2.10408e-13
      37.9000   1.76400e-13
      38.0000   1.45250e-13
      38.1000   1.14305e-13
      38.2000   9.53933e-14
      38.3000   7.84969e-14
      38.4000   6.17122e-14
      38.5000   5.11411e-14
      38.6000   4.20971e-14
      38.7000   3.31130e-14
      38.8000   2.71784e-14
      38.9000   2.24013e-14
      39.0000   1.76558e-14
      39.1000   1.43150e-14
      39.2000   1.18245e-14
      39.3000   9.35046e-15
      39.4000   7.46156e-15
      39.5000   6.16596e-15
      39.6000   4.87910e-15
      39.7000   3.81215e-15
      39.8000   3.16183e-15
      39.9000   2.51586e-15
      40.0000   1.92512e-15
      40.1000   1.60406e-15
      40.2000   1.28517e-15
      40.3000   9.68451e-16
      40.4000   8.05118e-16
      40.5000   6.49995e-16
      40.6000   4.95913e-16
      40.7000   3.99473e-16
      40.8000   3.25134e-16
      40.9000   2.51304e-16
      41.0000   1.95740e-16
      41.1000   1.60688e-16
      41.2000   1.25880e-16
      41.3000   9.46696e-17
      41.4000   7.84127e-17
      41.5000   6.22651e-17
      41.6000   4.62284e-17
      41.7000   3.77497e-17
      41.8000   3.03778e-17
      41.9000   2.30563e-17
      42.0000   1.79116e-17
      42.1000   1.46016e-17
      42.2000   1.13141e-17
      42.3000   8.36809e-18
      42.4000   6.90720e-18
      42.5000   5.45622e-18
      42.6000   4.01524e-18
      42.7000   3.21310e-18
      42.8000   2.58389e-18
      42.9000   1.95893e-18
      43.0000   1.46878e-18
      43.1000   1.20065e-18
      43.2000   9.34374e-19
      43.3000   6.69929e-19
      43.4000   6.70474e-19
      43.5000   7.41043e-19
      43.6000   8.59017e-19
      43.7000   9.32336e-19
      43.8000   8.59290e-19
      43.9000   6.85467e-19
      44.0000   4.85842e-19
      44.1000   3.84857e-19
      44.2000   3.05885e-19
      44.3000   2.28337e-19
      44.4000   1.70731e-19
      44.5000   1.39265e-19
      44.6000   1.07881e-19
      44.7000   7.65804e-20
      44.8000   6.17637e-20
      44.9000   4.93080e-20
      45.0000   3.68846e-20
      45.1000   2.66904e-20
      45.2000   2.18448e-20
      45.3000   1.70124e-20
      45.4000   1.21920e-20
      45.5000   9.39458e-21
      45.6000   7.55262e-21
      45.7000   5.71555e-21
      45.8000   3.92592e-21
      45.9000   3.23825e-21
      46.0000   2.55235e-21
      46.1000   1.86824e-21
      46.2000   1.34402e-21
      46.3000   1.09396e-21
      46.4000   8.44578e-22
      46.5000   5.95823e-22
      46.6000   4.53150e-22
      46.7000   3.63580e-22
      46.8000   2.74246e-22
      46.9000   1.85138e-22
      47.0000   1.49978e-22
      47.1000   1.18559e-22
      47.2000   8.72212e-23
      47.3000   5.95593e-23
      47.4000   4.87380e-23
      47.5000   3.79439e-23
      47.6000   2.71781e-23
      47.7000   1.91789e-23
      47.8000   1.55448e-23
      47.9000   1.19196e-23
      48.0000   8.30413e-24
      48.1000   6.06121e-24
      48.2000   4.86827e-24
      48.3000   3.67832e-24
      48.4000   2.49145e-24
      48.5000   1.87969e-24
      48.6000   1.49721e-24
      48.7000   1.11570e-24
      48.8000   7.35127e-25
      48.9000   5.71850e-25
      49.0000   4.52217e-25
      49.1000   3.32892e-25
      49.2000   2.13864e-25
      49.3000   1.73632e-25
      49.4000   1.40295e-25
      49.5000   1.07042e-25
      49.6000   7.38718e-26
      49.7000   6.65244e-26
      49.8000   5.98312e-26
      49.9000   5.31550e-26
      50.0000   4.64959e-26
      50.1000   4.07812e-26
      50.2000   3.29176e-26
      50.3000   2.66163e-26
      50.4000   2.30251e-26
      50.5000   2.07506e-26
      50.6000   1.85280e-26
      50.7000   1.43208e-26
      50.8000   1.19345e-26
      50.9000   6.53518e-27
      51.0000   4.37864e-27
      51.1000   3.54020e-27
      51.2000   3.54727e-27
      51.3000   3.17714e-27
      51.4000   1.95934e-27
      51.5000   1.18156e-27
      51.6000   8.33320e-28
      51.7000   5.61963e-28
      51.8000   4.25047e-28
      51.9000   3.53705e-28
      52.0000   2.80257e-28
      52.1000   1.93721e-28
      52.2000   1.48208e-28
      52.3000   9.76234e-29
      52.4000   6.37054e-29
      52.5000   5.03428e-29
      52.6000   4.47544e-29
      52.7000   3.81822e-29
      52.8000   2.59542e-29
      52.9000   1.48458e-29
      53.0000   9.92790e-30
      53.1000   6.54643e-30
      53.2000   4.39261e-30
      53.3000   2.91535e-30
      53.4000   1.91034e-30
      53.5000   1.09045e-30
      53.6000   5.51167e-31
      53.7000   3.21993e-31
      53.8000   2.40491e-31
      53.9000   1.65163e-31
      54.0000   1.11054e-31
      54.1000   7.22636e-32
      54.2000   5.12090e-32
      54.3000   3.08458e-32
      54.4000   1.30642e-32
      54.5000   7.13365e-33
      54.6000   5.11010e-33
      54.7000   3.87782e-33
      54.8000   2.72454e-33
      54.9000   1.84729e-33
      55.0000   1.34437e-33
      55.1000   9.72235e-34
      55.2000   6.97841e-34
      55.3000   6.44913e-34
      55.4000   5.74938e-34
      55.5000   4.13070e-34
      55.6000   2.64836e-34
      55.7000   1.90582e-34
      55.8000   1.30141e-34
      55.9000   9.12448e-35
      56.0000   6.67529e-35
      56.1000   4.61330e-35
      56.2000   4.27470e-35
      56.3000   3.48613e-35
      56.4000   2.52497e-35
      56.5000   1.74032e-35
      56.6000   1.19911e-35
      56.7000   8.73704e-36
      56.8000   6.41012e-36
      56.9000   4.54221e-36
      57.0000   3.03314e-36
      57.1000   2.02566e-36
      57.2000   1.39514e-36
      57.3000   9.87573e-37
      57.4000   7.05312e-37
      57.5000   5.00436e-37
      57.6000   3.25428e-37
      57.7000   2.26196e-37
      57.8000   2.04997e-37
      57.9000   1.53499e-37
      58.0000   1.09366e-37
      58.1000   7.21341e-38
      58.2000   4.15231e-38
      58.3000   2.73150e-38
      58.4000   2.06649e-38
      58.5000   1.64773e-38
      58.6000   1.12467e-38
      58.7000   7.59577e-39
      58.8000   5.09891e-39
      58.9000   3.43491e-39
      59.0000   2.49585e-39
      59.1000   1.85209e-39
      59.2000   1.37000e-39
      59.3000   1.00992e-39
      59.4000   7.41742e-40
      59.5000   5.22449e-40
      59.6000   3.45602e-40
      59.7000   2.64658e-40
      59.8000   1.83962e-40
      59.9000   1.09345e-40
      60.0000   8.05256e-41
      60.1000   5.94066e-41
      60.2000   4.36841e-41
      60.3000   3.20169e-41
      60.4000   2.33933e-41
      60.5000   1.72402e-41
      60.6000   1.28149e-41
      60.7000   1.00893e-41
      60.8000   8.32932e-42
      60.9000   6.85936e-42
      61.0000   5.67105e-42
      61.1000   4.69715e-42
      61.2000   3.90682e-42
      61.3000   3.23980e-42
      61.4000   2.68068e-42
      61.5000   2.22947e-42
      61.6000   1.77264e-42
      61.7000   1.39569e-42
      61.8000   1.09582e-42
      61.9000   8.68805e-43
      62.0000   6.64215e-43
      62.1000   4.79244e-43
      62.2000   3.39114e-43
      62.3000   2.46629e-43
      62.4000   2.04590e-43
      62.5000   1.75162e-43
      62.6000   1.49939e-43
      62.7000   1.27518e-43
      62.8000   1.14906e-43
      62.9000   8.26766e-44
      63.0000   5.74532e-44
      63.1000   3.78351e-44
      63.2000   3.50325e-44
      63.3000   2.52234e-44
      63.4000   2.24208e-44
      63.5000   1.54143e-44
      63.6000   1.26117e-44
      63.7000   9.80909e-45
      63.8000   9.80909e-45
      63.9000   7.00649e-45
      64.0000   2.80260e-45
      64.1000   2.80260e-45
      64.2000   2.80260e-45
      64.3000   2.80260e-45
      64.4000       0.00000
      64.5000       0.00000
      64.6000       0.00000
      64.7000       0.00000
      64.8000       0.00000
      64.9000       0.00000
      65.0000       0.00000
      65.1000       0.00000
      65.2000       0.00000
      65.3000       0.00000
      65.4000       0.00000
      65.5000       0.00000
      65.6000       0.00000
      65.7000       0.00000
      65.8000       0.00000
      65.9000       0.00000
      66.0000       0.00000
      66.1000       0.00000
      66.2000       0.00000
      66.3000       0.00000
      66.4000       0.00000
      66.5000       0.00000
      66.6000       0.00000
      66.7000       0.00000
      66.8000       0.00000
      66.9000       0.00000
      67.0000       0.00000
      67.1000       0.00000
      67.2000       0.00000
      67.3000       0.00000
      67.4000       0.00000
      67.5000       0.00000
      67.6000       0.00000
      67.7000       0.00000
      67.8000       0.00000
      67.9000       0.00000
      68.0000       0.00000
      68.1000       0.00000
      68.2000       0.00000
      68.3000       0.00000
      68.4000       0.00000
      68.5000       0.00000
      68.6000       0.00000
      68.7000       0.00000
      68.8000       0.00000
      68.9000       0.00000
      69.0000       0.00000
      69.1000       0.00000
      69.2000       0.00000
      69.3000       0.00000
      69.4000       0.00000
      69.5000       0.00000
      69.6000       0.00000
      69.7000       0.00000
      69.8000       0.00000
      69.9000       0.00000
      70.0000       0.00000
      70.1000       0.00000
      70.2000       0.00000
      70.3000       0.00000
      70.4000       0.00000
      70.5000       0.00000
      70.6000       0.00000
      70.7000       0.00000
      70.8000       0.00000
      70.9000       0.00000
      71.0000       0.00000
      71.1000       0.00000
      71.2000       0.00000
      71.3000       0.00000
      71.4000       0.00000
      71.5000       0.00000
      71.6000       0.00000
      71.7000       0.00000
      71.8000       0.00000
      71.9000       0.00000
      72.0000       0.00000
