Filter Al-poly
observation_date 22Sept2023
wavelength effective area
      1.00000   2.78456e-10
      1.10000   7.94911e-10
      1.20000   2.06646e-09
      1.30000   4.94129e-09
      1.40000   1.12121e-08
      1.50000   2.39195e-08
      1.60000   4.84222e-08
      1.70000   9.40045e-08
      1.80000   1.75010e-07
      1.90000   3.14546e-07
      2.00000   5.46834e-07
      2.10000   9.23630e-07
      2.20000   1.52297e-06
      2.30000   2.44820e-06
      2.40000   3.84358e-06
      2.50000   5.87404e-06
      2.60000   8.96443e-06
      2.70000   1.33653e-05
      2.80000   1.95457e-05
      2.90000   2.82906e-05
      3.00000   4.03092e-05
      3.10000   5.66958e-05
      3.20000   7.88743e-05
      3.30000   0.000108614
      3.40000   0.000148010
      3.50000   0.000199745
      3.60000   0.000268327
      3.70000   0.000356633
      3.80000   0.000472045
      3.90000   0.000621349
      4.00000   0.000812799
      4.10000    0.00105833
      4.20000    0.00137313
      4.30000    0.00177654
      4.40000    0.00229238
      4.50000    0.00294994
      4.60000    0.00378345
      4.70000    0.00485242
      4.80000    0.00621720
      4.90000    0.00786356
      5.00000     0.0102081
      5.10000     0.0130650
      5.20000     0.0167718
      5.30000     0.0213484
      5.40000     0.0271313
      5.50000     0.0345419
      5.60000     0.0426287
      5.70000     0.0554261
      5.80000     0.0649976
      5.90000     0.0992714
      6.00000      0.133488
      6.10000      0.170671
      6.20000      0.209675
      6.30000      0.246919
      6.40000      0.278925
      6.50000      0.302553
      6.60000      0.313340
      6.70000      0.323294
      6.80000      0.323907
      6.90000      0.425193
      7.00000      0.462681
      7.10000      0.489653
      7.20000      0.511204
      7.30000      0.528930
      7.40000      0.542604
      7.50000      0.553614
      7.60000      0.562068
      7.70000      0.566474
      7.80000      0.565716
      7.90000      0.565652
      8.00000      0.954759
      8.10000       1.05058
      8.20000       1.07339
      8.30000       1.09156
      8.40000       1.10570
      8.50000       1.11829
      8.60000       1.12897
      8.70000       1.13844
      8.80000       1.14634
      8.90000       1.15320
      9.00000       1.15894
      9.10000       1.16358
      9.20000       1.16735
      9.30000       1.17012
      9.40000       1.17206
      9.50000       1.17322
      9.60000       1.17352
      9.70000       1.17310
      9.80000       1.17207
      9.90000       1.17047
      10.0000       1.16835
      10.1000       1.16573
      10.2000       1.16263
      10.3000       1.15899
      10.4000       1.15484
      10.5000       1.15021
      10.6000       1.14513
      10.7000       1.13962
      10.8000       1.13369
      10.9000       1.12736
      11.0000       1.12065
      11.1000       1.11360
      11.2000       1.10619
      11.3000       1.09848
      11.4000       1.09044
      11.5000       1.08205
      11.6000       1.07335
      11.7000       1.06423
      11.8000       1.05480
      11.9000       1.04487
      12.0000       1.03336
      12.1000       1.02547
      12.2000       1.03548
      12.3000       1.03465
      12.4000       1.02614
      12.5000       1.01683
      12.6000       1.00711
      12.7000      0.997145
      12.8000      0.986984
      12.9000      0.976640
      13.0000      0.966169
      13.1000      0.955608
      13.2000      0.944982
      13.3000      0.934308
      13.4000      0.923615
      13.5000      0.913061
      13.6000      0.902615
      13.7000      0.892170
      13.8000      0.881714
      13.9000      0.871286
      14.0000      0.860880
      14.1000      0.850470
      14.2000      0.840055
      14.3000      0.829628
      14.4000      0.819158
      14.5000      0.808658
      14.6000      0.798111
      14.7000      0.787529
      14.8000      0.776924
      14.9000      0.766299
      15.0000      0.755669
      15.1000      0.745057
      15.2000      0.734465
      15.3000      0.723898
      15.4000      0.713360
      15.5000      0.702860
      15.6000      0.692443
      15.7000      0.682068
      15.8000      0.671789
      15.9000      0.661603
      16.0000      0.651503
      16.1000      0.641501
      16.2000      0.631617
      16.3000      0.621802
      16.4000      0.612058
      16.5000      0.602380
      16.6000      0.592760
      16.7000      0.583197
      16.8000      0.573693
      16.9000      0.564247
      17.0000      0.554864
      17.1000      0.545539
      17.2000      0.536267
      17.3000      0.527060
      17.4000      0.518056
      17.5000      0.509285
      17.6000      0.500681
      17.7000      0.492317
      17.8000      0.484314
      17.9000      0.476394
      18.0000      0.468486
      18.1000      0.460622
      18.2000      0.452747
      18.3000      0.444832
      18.4000      0.436830
      18.5000      0.428773
      18.6000      0.420648
      18.7000      0.412393
      18.8000      0.404197
      18.9000      0.396068
      19.0000      0.388003
      19.1000      0.380040
      19.2000      0.372171
      19.3000      0.364419
      19.4000      0.356790
      19.5000      0.349270
      19.6000      0.341918
      19.7000      0.334668
      19.8000      0.327515
      19.9000      0.320500
      20.0000      0.313564
      20.1000      0.306713
      20.2000      0.299929
      20.3000      0.293211
      20.4000      0.286582
      20.5000      0.280005
      20.6000      0.273482
      20.7000      0.267036
      20.8000      0.260644
      20.9000      0.254294
      21.0000      0.248012
      21.1000      0.241801
      21.2000      0.235591
      21.3000      0.229433
      21.4000      0.223345
      21.5000      0.217260
      21.6000      0.211171
      21.7000      0.205090
      21.8000      0.199041
      21.9000      0.192771
      22.0000      0.186487
      22.1000      0.180086
      22.2000      0.173298
      22.3000      0.166191
      22.4000      0.156410
      22.5000      0.145873
      22.6000      0.124279
      22.7000      0.113574
      22.8000      0.155394
      22.9000      0.207711
      23.0000      0.265281
      23.1000      0.302425
      23.2000      0.319554
      23.3000      0.323403
      23.4000      0.320329
      23.5000      0.316821
      23.6000      0.313224
      23.7000      0.308767
      23.8000      0.304265
      23.9000      0.299645
      24.0000      0.295022
      24.1000      0.290190
      24.2000      0.285382
      24.3000      0.280569
      24.4000      0.275767
      24.5000      0.270934
      24.6000      0.266139
      24.7000      0.261381
      24.8000      0.256656
      24.9000      0.251961
      25.0000      0.247311
      25.1000      0.242712
      25.2000      0.238155
      25.3000      0.233644
      25.4000      0.229183
      25.5000      0.224785
      25.6000      0.220446
      25.7000      0.216179
      25.8000      0.211959
      25.9000      0.207805
      26.0000      0.203692
      26.1000      0.199639
      26.2000      0.195627
      26.3000      0.191688
      26.4000      0.187784
      26.5000      0.183945
      26.6000      0.180140
      26.7000      0.176410
      26.8000      0.172727
      26.9000      0.169093
      27.0000      0.165496
      27.1000      0.161920
      27.2000      0.158371
      27.3000      0.155217
      27.4000      0.152542
      27.5000      0.149766
      27.6000      0.146664
      27.7000      0.143586
      27.8000      0.140482
      27.9000      0.137408
      28.0000      0.134404
      28.1000      0.131438
      28.2000      0.128537
      28.3000      0.125688
      28.4000      0.122886
      28.5000      0.120149
      28.6000      0.117444
      28.7000      0.114851
      28.8000      0.112283
      28.9000      0.109776
      29.0000      0.107304
      29.1000      0.104878
      29.2000      0.102499
      29.3000      0.100150
      29.4000     0.0978647
      29.5000     0.0956022
      29.6000     0.0933975
      29.7000     0.0912246
      29.8000     0.0890930
      29.9000     0.0870088
      30.0000     0.0849479
      30.1000     0.0829491
      30.2000     0.0809711
      30.3000     0.0822382
      30.4000     0.0853215
      30.5000     0.0872911
      30.6000     0.0852821
      30.7000     0.0832941
      30.8000     0.0813588
      30.9000     0.0794536
      31.0000     0.0775810
      31.1000     0.0757559
      31.2000     0.0739505
      31.3000     0.0721971
      31.4000     0.0704696
      31.5000     0.0687733
      31.6000     0.0671215
      31.7000     0.0654879
      31.8000     0.0639025
      31.9000     0.0623424
      32.0000     0.0608090
      32.1000     0.0593203
      32.2000     0.0578483
      32.3000     0.0564185
      32.4000     0.0550162
      32.5000     0.0536367
      32.6000     0.0523278
      32.7000     0.0510378
      32.8000     0.0497797
      32.9000     0.0485503
      33.0000     0.0473349
      33.1000     0.0461960
      33.2000     0.0450827
      33.3000     0.0439909
      33.4000     0.0429295
      33.5000     0.0418805
      33.6000     0.0408601
      33.7000     0.0398629
      33.8000     0.0388767
      33.9000     0.0379256
      34.0000     0.0369883
      34.1000     0.0360705
      34.2000     0.0351787
      34.3000     0.0342966
      34.4000     0.0334354
      34.5000     0.0325979
      34.6000     0.0317698
      34.7000     0.0309518
      34.8000     0.0301433
      34.9000     0.0293440
      35.0000     0.0285767
      35.1000     0.0278205
      35.2000     0.0270756
      35.3000     0.0263607
      35.4000     0.0256539
      35.5000     0.0249621
      35.6000     0.0242948
      35.7000     0.0236352
      35.8000     0.0229932
      35.9000     0.0223711
      36.0000     0.0217561
      36.1000     0.0211609
      36.2000     0.0205815
      36.3000     0.0200090
      36.4000     0.0194572
      36.5000     0.0189182
      36.6000     0.0183856
      36.7000     0.0178746
      36.8000     0.0173739
      36.9000     0.0168792
      37.0000     0.0164060
      37.1000     0.0159414
      37.2000     0.0154824
      37.3000     0.0150446
      37.4000     0.0146142
      37.5000     0.0141890
      37.6000     0.0137840
      37.7000     0.0133856
      37.8000     0.0129921
      37.9000     0.0126176
      38.0000     0.0122495
      38.1000     0.0118859
      38.2000     0.0115397
      38.3000     0.0111999
      38.4000     0.0108643
      38.5000     0.0105443
      38.6000     0.0102310
      38.7000    0.00992169
      38.8000    0.00962596
      38.9000    0.00933759
      39.0000    0.00905284
      39.1000    0.00877959
      39.2000    0.00851453
      39.3000    0.00825285
      39.4000    0.00800035
      39.5000    0.00775699
      39.6000    0.00751677
      39.7000    0.00728345
      39.8000    0.00706049
      39.9000    0.00684040
      40.0000    0.00662484
      40.1000    0.00642075
      40.2000    0.00621932
      40.3000    0.00602053
      40.4000    0.00583356
      40.5000    0.00564949
      40.6000    0.00546783
      40.7000    0.00529509
      40.8000    0.00512707
      40.9000    0.00496129
      41.0000    0.00480161
      41.1000    0.00464847
      41.2000    0.00449739
      41.3000    0.00434986
      41.4000    0.00421074
      41.5000    0.00407347
      41.6000    0.00393807
      41.7000    0.00381075
      41.8000    0.00368604
      41.9000    0.00356303
      42.0000    0.00344541
      42.1000    0.00333243
      42.2000    0.00322098
      42.3000    0.00311215
      42.4000    0.00300983
      42.5000    0.00290892
      42.6000    0.00280940
      42.7000    0.00271568
      42.8000    0.00262444
      42.9000    0.00253445
      43.0000    0.00244767
      43.1000    0.00236534
      43.2000    0.00228416
      43.3000    0.00220411
      43.4000    0.00696892
      43.5000     0.0159732
      43.6000     0.0336341
      43.7000     0.0579260
      43.8000     0.0758458
      43.9000     0.0791875
      44.0000     0.0768937
      44.1000     0.0693721
      44.2000     0.0676852
      44.3000     0.0665007
      44.4000     0.0653399
      44.5000     0.0642090
      44.6000     0.0630817
      44.7000     0.0619581
      44.8000     0.0608771
      44.9000     0.0598051
      45.0000     0.0587366
      45.1000     0.0576843
      45.2000     0.0566662
      45.3000     0.0556513
      45.4000     0.0546397
      45.5000     0.0536600
      45.6000     0.0526968
      45.7000     0.0517369
      45.8000     0.0507816
      45.9000     0.0498689
      46.0000     0.0489592
      46.1000     0.0480524
      46.2000     0.0472032
      46.3000     0.0464506
      46.4000     0.0457005
      46.5000     0.0449528
      46.6000     0.0442416
      46.7000     0.0435496
      46.8000     0.0428600
      46.9000     0.0421725
      47.0000     0.0415334
      47.1000     0.0408996
      47.2000     0.0402678
      47.3000     0.0396431
      47.4000     0.0390442
      47.5000     0.0384472
      47.6000     0.0378521
      47.7000     0.0372677
      47.8000     0.0366991
      47.9000     0.0361322
      48.0000     0.0355673
      48.1000     0.0350167
      48.2000     0.0344777
      48.3000     0.0339403
      48.4000     0.0334047
      48.5000     0.0328858
      48.6000     0.0323746
      48.7000     0.0318650
      48.8000     0.0313570
      48.9000     0.0308681
      49.0000     0.0303841
      49.1000     0.0299017
      49.2000     0.0294210
      49.3000     0.0289601
      49.4000     0.0285023
      49.5000     0.0280460
      49.6000     0.0275911
      49.7000     0.0271564
      49.8000     0.0267235
      49.9000     0.0262921
      50.0000     0.0258625
      50.1000     0.0254485
      50.2000     0.0250460
      50.3000     0.0246485
      50.4000     0.0242569
      50.5000     0.0238711
      50.6000     0.0234910
      50.7000     0.0231162
      50.8000     0.0227462
      50.9000     0.0223819
      51.0000     0.0220237
      51.1000     0.0216711
      51.2000     0.0213235
      51.3000     0.0209807
      51.4000     0.0206436
      51.5000     0.0203111
      51.6000     0.0199830
      51.7000     0.0196594
      51.8000     0.0193383
      51.9000     0.0190217
      52.0000     0.0187100
      52.1000     0.0184031
      52.2000     0.0181002
      52.3000     0.0178013
      52.4000     0.0175076
      52.5000     0.0172182
      52.6000     0.0169325
      52.7000     0.0166504
      52.8000     0.0163722
      52.9000     0.0160986
      53.0000     0.0158292
      53.1000     0.0155636
      53.2000     0.0153024
      53.3000     0.0150448
      53.4000     0.0147912
      53.5000     0.0145414
      53.6000     0.0142950
      53.7000     0.0140522
      53.8000     0.0138133
      53.9000     0.0135780
      54.0000     0.0133466
      54.1000     0.0131193
      54.2000     0.0128949
      54.3000     0.0126735
      54.4000     0.0124557
      54.5000     0.0122414
      54.6000     0.0120303
      54.7000     0.0118227
      54.8000     0.0116183
      54.9000     0.0114170
      55.0000     0.0112189
      55.1000     0.0110238
      55.2000     0.0108222
      55.3000     0.0106151
      55.4000     0.0104112
      55.5000     0.0102106
      55.6000     0.0100137
      55.7000    0.00982030
      55.8000    0.00963004
      55.9000    0.00944314
      56.0000    0.00926071
      56.1000    0.00907792
      56.2000    0.00889533
      56.3000    0.00871633
      56.4000    0.00854041
      56.5000    0.00836738
      56.6000    0.00819736
      56.7000    0.00803061
      56.8000    0.00786680
      56.9000    0.00770622
      57.0000    0.00754887
      57.1000    0.00739439
      57.2000    0.00724243
      57.3000    0.00709296
      57.4000    0.00694649
      57.5000    0.00680286
      57.6000    0.00666181
      57.7000    0.00652327
      57.8000    0.00638753
      57.9000    0.00625431
      58.0000    0.00612354
      58.1000    0.00599512
      58.2000    0.00586938
      58.3000    0.00574600
      58.4000    0.00562481
      58.5000    0.00550577
      58.6000    0.00538912
      58.7000    0.00527484
      58.8000    0.00516275
      58.9000    0.00505269
      59.0000    0.00494464
      59.1000    0.00483873
      59.2000    0.00473479
      59.3000    0.00463291
      59.4000    0.00453311
      59.5000    0.00443542
      59.6000    0.00433960
      59.7000    0.00424547
      59.8000    0.00415307
      59.9000    0.00406249
      60.0000    0.00397391
      60.1000    0.00388708
      60.2000    0.00380196
      60.3000    0.00371849
      60.4000    0.00363663
      60.5000    0.00355653
      60.6000    0.00347796
      60.7000    0.00340088
      60.8000    0.00332534
      60.9000    0.00325126
      61.0000    0.00317871
      61.1000    0.00310762
      61.2000    0.00303798
      61.3000    0.00296980
      61.4000    0.00290301
      61.5000    0.00283756
      61.6000    0.00277347
      61.7000    0.00271068
      61.8000    0.00264950
      61.9000    0.00258972
      62.0000    0.00253118
      62.1000    0.00247389
      62.2000    0.00241790
      62.3000    0.00236304
      62.4000    0.00230927
      62.5000    0.00225657
      62.6000    0.00220493
      62.7000    0.00215435
      62.8000    0.00210503
      62.9000    0.00205678
      63.0000    0.00200955
      63.1000    0.00196332
      63.2000    0.00191804
      63.3000    0.00187368
      63.4000    0.00183022
      63.5000    0.00178774
      63.6000    0.00174617
      63.7000    0.00170550
      63.8000    0.00166572
      63.9000    0.00162680
      64.0000    0.00158870
      64.1000    0.00155142
      64.2000    0.00151497
      64.3000    0.00147932
      64.4000    0.00144444
      64.5000    0.00141032
      64.6000    0.00137692
      64.7000    0.00134424
      64.8000    0.00131224
      64.9000    0.00128094
      65.0000    0.00125032
      65.1000    0.00122045
      65.2000    0.00119126
      65.3000    0.00116270
      65.4000    0.00113477
      65.5000    0.00110743
      65.6000    0.00108066
      65.7000    0.00105449
      65.8000    0.00102892
      65.9000    0.00100395
      66.0000   0.000979560
      66.1000   0.000955765
      66.2000   0.000932503
      66.3000   0.000909748
      66.4000   0.000887479
      66.5000   0.000865697
      66.6000   0.000844404
      66.7000   0.000823608
      66.8000   0.000803307
      66.9000   0.000783596
      67.0000   0.000764449
      67.1000   0.000745746
      67.2000   0.000727460
      67.3000   0.000709603
      67.4000   0.000692149
      67.5000   0.000675099
      67.6000   0.000658445
      67.7000   0.000642176
      67.8000   0.000626258
      67.9000   0.000610666
      68.0000   0.000595493
      68.1000   0.000580746
      68.2000   0.000566334
      68.3000   0.000552265
      68.4000   0.000538534
      68.5000   0.000525130
      68.6000   0.000512034
      68.7000   0.000499234
      68.8000   0.000486722
      68.9000   0.000474626
      69.0000   0.000463540
      69.1000   0.000454128
      69.2000   0.000445704
      69.3000   0.000437518
      69.4000   0.000429643
      69.5000   0.000421711
      69.6000   0.000413649
      69.7000   0.000405889
      69.8000   0.000398470
      69.9000   0.000391187
      70.0000   0.000384025
      70.1000   0.000376885
      70.2000   0.000370345
      70.3000   0.000364386
      70.4000   0.000358500
      70.5000   0.000352764
      70.6000   0.000347163
      70.7000   0.000341649
      70.8000   0.000336212
      70.9000   0.000330706
      71.0000   0.000325149
      71.1000   0.000319837
      71.2000   0.000314765
      71.3000   0.000309474
      71.4000   0.000303908
      71.5000   0.000298731
      71.6000   0.000294104
      71.7000   0.000289473
      71.8000   0.000284746
      71.9000   0.000280182
      72.0000   0.000275926
