Filter Al-poly
observation_date 22-Sept-2015 22:40:45
wavelength effective area 
      1.00000   2.78457e-10
      1.10000   7.94914e-10
      1.20000   2.06647e-09
      1.30000   4.94132e-09
      1.40000   1.12122e-08
      1.50000   2.39198e-08
      1.60000   4.84228e-08
      1.70000   9.40060e-08
      1.80000   1.75013e-07
      1.90000   3.14553e-07
      2.00000   5.46848e-07
      2.10000   9.23659e-07
      2.20000   1.52303e-06
      2.30000   2.44830e-06
      2.40000   3.84376e-06
      2.50000   5.87435e-06
      2.60000   8.96496e-06
      2.70000   1.33662e-05
      2.80000   1.95472e-05
      2.90000   2.82929e-05
      3.00000   4.03129e-05
      3.10000   5.67016e-05
      3.20000   7.88831e-05
      3.30000   0.000108627
      3.40000   0.000148029
      3.50000   0.000199774
      3.60000   0.000268370
      3.70000   0.000356695
      3.80000   0.000472133
      3.90000   0.000621474
      4.00000   0.000812976
      4.10000    0.00105858
      4.20000    0.00137348
      4.30000    0.00177702
      4.40000    0.00229305
      4.50000    0.00295085
      4.60000    0.00378469
      4.70000    0.00485412
      4.80000    0.00621952
      4.90000    0.00786668
      5.00000     0.0102124
      5.10000     0.0130709
      5.20000     0.0167797
      5.30000     0.0213591
      5.40000     0.0271456
      5.50000     0.0345611
      5.60000     0.0426537
      5.70000     0.0554603
      5.80000     0.0650398
      5.90000     0.0993391
      6.00000      0.133584
      6.10000      0.170799
      6.20000      0.209840
      6.30000      0.247122
      6.40000      0.279166
      6.50000      0.302826
      6.60000      0.313636
      6.70000      0.323612
      6.80000      0.324240
      6.90000      0.425649
      7.00000      0.463198
      7.10000      0.490223
      7.20000      0.511823
      7.30000      0.529596
      7.40000      0.543315
      7.50000      0.554368
      7.60000      0.562863
      7.70000      0.567306
      7.80000      0.566578
      7.90000      0.566545
      8.00000      0.956322
      8.10000       1.05237
      8.20000       1.07527
      8.30000       1.09355
      8.40000       1.10779
      8.50000       1.12046
      8.60000       1.13124
      8.70000       1.14080
      8.80000       1.14880
      8.90000       1.15576
      9.00000       1.16159
      9.10000       1.16633
      9.20000       1.17019
      9.30000       1.17306
      9.40000       1.17509
      9.50000       1.17634
      9.60000       1.17675
      9.70000       1.17641
      9.80000       1.17548
      9.90000       1.17397
      10.0000       1.17195
      10.1000       1.16942
      10.2000       1.16641
      10.3000       1.16287
      10.4000       1.15881
      10.5000       1.15426
      10.6000       1.14927
      10.7000       1.14385
      10.8000       1.13801
      10.9000       1.13177
      11.0000       1.12515
      11.1000       1.11818
      11.2000       1.11086
      11.3000       1.10323
      11.4000       1.09527
      11.5000       1.08697
      11.6000       1.07834
      11.7000       1.06930
      11.8000       1.05994
      11.9000       1.05009
      12.0000       1.03863
      12.1000       1.03082
      12.2000       1.04101
      12.3000       1.04031
      12.4000       1.03187
      12.5000       1.02263
      12.6000       1.01299
      12.7000       1.00309
      12.8000      0.992999
      12.9000      0.982721
      13.0000      0.972314
      13.1000      0.961814
      13.2000      0.951247
      13.3000      0.940632
      13.4000      0.929995
      13.5000      0.919495
      13.6000      0.909103
      13.7000      0.898709
      13.8000      0.888304
      13.9000      0.877925
      14.0000      0.867567
      14.1000      0.857203
      14.2000      0.846833
      14.3000      0.836449
      14.4000      0.826020
      14.5000      0.815559
      14.6000      0.805049
      14.7000      0.794503
      14.8000      0.783931
      14.9000      0.773338
      15.0000      0.762737
      15.1000      0.752153
      15.2000      0.741585
      15.3000      0.731042
      15.4000      0.720525
      15.5000      0.710045
      15.6000      0.699646
      15.7000      0.689287
      15.8000      0.679023
      15.9000      0.668849
      16.0000      0.658760
      16.1000      0.648768
      16.2000      0.638892
      16.3000      0.629082
      16.4000      0.619342
      16.5000      0.609667
      16.6000      0.600047
      16.7000      0.590483
      16.8000      0.580975
      16.9000      0.571525
      17.0000      0.562135
      17.1000      0.552800
      17.2000      0.543517
      17.3000      0.534297
      17.4000      0.525279
      17.5000      0.516490
      17.6000      0.507869
      17.7000      0.499484
      17.8000      0.491459
      17.9000      0.483517
      18.0000      0.475585
      18.1000      0.467695
      18.2000      0.459791
      18.3000      0.451847
      18.4000      0.443812
      18.5000      0.435720
      18.6000      0.427557
      18.7000      0.419260
      18.8000      0.411022
      18.9000      0.402848
      19.0000      0.394735
      19.1000      0.386724
      19.2000      0.378805
      19.3000      0.371002
      19.4000      0.363321
      19.5000      0.355747
      19.6000      0.348341
      19.7000      0.341037
      19.8000      0.333828
      19.9000      0.326757
      20.0000      0.319763
      20.1000      0.312853
      20.2000      0.306009
      20.3000      0.299228
      20.4000      0.292536
      20.5000      0.285895
      20.6000      0.279306
      20.7000      0.272792
      20.8000      0.266332
      20.9000      0.259910
      21.0000      0.253555
      21.1000      0.247271
      21.2000      0.240984
      21.3000      0.234748
      21.4000      0.228580
      21.5000      0.222413
      21.6000      0.216238
      21.7000      0.210069
      21.8000      0.203930
      21.9000      0.197561
      22.0000      0.191175
      22.1000      0.184665
      22.2000      0.177756
      22.3000      0.170515
      22.4000      0.160526
      22.5000      0.149756
      22.6000      0.127625
      22.7000      0.116533
      22.8000      0.158881
      22.9000      0.211874
      23.0000      0.270595
      23.1000      0.308518
      23.2000      0.326116
      23.3000      0.330118
      23.4000      0.327053
      23.5000      0.323544
      23.6000      0.319944
      23.7000      0.315462
      23.8000      0.310935
      23.9000      0.306284
      24.0000      0.301629
      24.1000      0.296758
      24.2000      0.291910
      24.3000      0.287055
      24.4000      0.282209
      24.5000      0.277330
      24.6000      0.272488
      24.7000      0.267681
      24.8000      0.262907
      24.9000      0.258161
      25.0000      0.253459
      25.1000      0.248808
      25.2000      0.244198
      25.3000      0.239632
      25.4000      0.235117
      25.5000      0.230664
      25.6000      0.226269
      25.7000      0.221945
      25.8000      0.217668
      25.9000      0.213457
      26.0000      0.209286
      26.1000      0.205175
      26.2000      0.201104
      26.3000      0.197107
      26.4000      0.193143
      26.5000      0.189245
      26.6000      0.185380
      26.7000      0.181590
      26.8000      0.177846
      26.9000      0.174152
      27.0000      0.170494
      27.1000      0.166856
      27.2000      0.163243
      27.3000      0.160037
      27.4000      0.157322
      27.5000      0.154503
      27.6000      0.151345
      27.7000      0.148211
      27.8000      0.145049
      27.9000      0.141915
      28.0000      0.138852
      28.1000      0.135827
      28.2000      0.132867
      28.3000      0.129961
      28.4000      0.127101
      28.5000      0.124306
      28.6000      0.121544
      28.7000      0.118896
      28.8000      0.116272
      28.9000      0.113711
      29.0000      0.111184
      29.1000      0.108703
      29.2000      0.106270
      29.3000      0.103867
      29.4000      0.101528
      29.5000     0.0992114
      29.6000     0.0969538
      29.7000     0.0947279
      29.8000     0.0925436
      29.9000     0.0904074
      30.0000     0.0882942
      30.1000     0.0862442
      30.2000     0.0842147
      30.3000     0.0855602
      30.4000     0.0887969
      30.5000     0.0908763
      30.6000     0.0888139
      30.7000     0.0867723
      30.8000     0.0847844
      30.9000     0.0828265
      31.0000     0.0809014
      31.1000     0.0790247
      31.2000     0.0771674
      31.3000     0.0753632
      31.4000     0.0735851
      31.5000     0.0718385
      31.6000     0.0701372
      31.7000     0.0684538
      31.8000     0.0668199
      31.9000     0.0652113
      32.0000     0.0636297
      32.1000     0.0620938
      32.2000     0.0605743
      32.3000     0.0590980
      32.4000     0.0576497
      32.5000     0.0562242
      32.6000     0.0548714
      32.7000     0.0535372
      32.8000     0.0522356
      32.9000     0.0509635
      33.0000     0.0497050
      33.1000     0.0485255
      33.2000     0.0473717
      33.3000     0.0462396
      33.4000     0.0451391
      33.5000     0.0440509
      33.6000     0.0429920
      33.7000     0.0419570
      33.8000     0.0409328
      33.9000     0.0399450
      34.0000     0.0389711
      34.1000     0.0380171
      34.2000     0.0370899
      34.3000     0.0361724
      34.4000     0.0352763
      34.5000     0.0344046
      34.6000     0.0335423
      34.7000     0.0326901
      34.8000     0.0318475
      34.9000     0.0310139
      35.0000     0.0302137
      35.1000     0.0294246
      35.2000     0.0286468
      35.3000     0.0279004
      35.4000     0.0271621
      35.5000     0.0264391
      35.6000     0.0257416
      35.7000     0.0250518
      35.8000     0.0243803
      35.9000     0.0237293
      36.0000     0.0230855
      36.1000     0.0224621
      36.2000     0.0218552
      36.3000     0.0212550
      36.4000     0.0206766
      36.5000     0.0201113
      36.6000     0.0195524
      36.7000     0.0190161
      36.8000     0.0184903
      36.9000     0.0179707
      37.0000     0.0174735
      37.1000     0.0169851
      37.2000     0.0165024
      37.3000     0.0160419
      37.4000     0.0155889
      37.5000     0.0151412
      37.6000     0.0147147
      37.7000     0.0142949
      37.8000     0.0138801
      37.9000     0.0134853
      38.0000     0.0130969
      38.1000     0.0127131
      38.2000     0.0123478
      38.3000     0.0119889
      38.4000     0.0116343
      38.5000     0.0112961
      38.6000     0.0109649
      38.7000     0.0106376
      38.8000     0.0103247
      38.9000     0.0100194
      39.0000    0.00971779
      39.1000    0.00942829
      39.2000    0.00914737
      39.3000    0.00886985
      39.4000    0.00860200
      39.5000    0.00834376
      39.6000    0.00808870
      39.7000    0.00784086
      39.8000    0.00760398
      39.9000    0.00737001
      40.0000    0.00714075
      40.1000    0.00692367
      40.2000    0.00670927
      40.3000    0.00649756
      40.4000    0.00629843
      40.5000    0.00610228
      40.6000    0.00590856
      40.7000    0.00572433
      40.8000    0.00554505
      40.9000    0.00536805
      41.0000    0.00519752
      41.1000    0.00503391
      41.2000    0.00487241
      41.3000    0.00471464
      41.4000    0.00456584
      41.5000    0.00441893
      41.6000    0.00427391
      41.7000    0.00413755
      41.8000    0.00400391
      41.9000    0.00387200
      42.0000    0.00374583
      42.1000    0.00362460
      42.2000    0.00350494
      42.3000    0.00338803
      42.4000    0.00327811
      42.5000    0.00316963
      42.6000    0.00306256
      42.7000    0.00296174
      42.8000    0.00286353
      42.9000    0.00276660
      43.0000    0.00267309
      43.1000    0.00258436
      43.2000    0.00249680
      43.3000    0.00241041
      43.4000    0.00762471
      43.5000     0.0172211
      43.6000     0.0354031
      43.7000     0.0592972
      43.8000     0.0760012
      43.9000     0.0789867
      44.0000     0.0767713
      44.1000     0.0697185
      44.2000     0.0680629
      44.3000     0.0668743
      44.4000     0.0657095
      44.5000     0.0645746
      44.6000     0.0634433
      44.7000     0.0623157
      44.8000     0.0612307
      44.9000     0.0601549
      45.0000     0.0590825
      45.1000     0.0580263
      45.2000     0.0570044
      45.3000     0.0559857
      45.4000     0.0549703
      45.5000     0.0539868
      45.6000     0.0530199
      45.7000     0.0520562
      45.8000     0.0510970
      45.9000     0.0501807
      46.0000     0.0492673
      46.1000     0.0483567
      46.2000     0.0475040
      46.3000     0.0467486
      46.4000     0.0459956
      46.5000     0.0452450
      46.6000     0.0445310
      46.7000     0.0438364
      46.8000     0.0431440
      46.9000     0.0424537
      47.0000     0.0418122
      47.1000     0.0411759
      47.2000     0.0405416
      47.3000     0.0399144
      47.4000     0.0393130
      47.5000     0.0387136
      47.6000     0.0381161
      47.7000     0.0375293
      47.8000     0.0369583
      47.9000     0.0363891
      48.0000     0.0358217
      48.1000     0.0352689
      48.2000     0.0347275
      48.3000     0.0341878
      48.4000     0.0336498
      48.5000     0.0331286
      48.6000     0.0326150
      48.7000     0.0321030
      48.8000     0.0315927
      48.9000     0.0311015
      49.0000     0.0306152
      49.1000     0.0301306
      49.2000     0.0296476
      49.3000     0.0291846
      49.4000     0.0287246
      49.5000     0.0282661
      49.6000     0.0278090
      49.7000     0.0273722
      49.8000     0.0269372
      49.9000     0.0265037
      50.0000     0.0260719
      50.1000     0.0256557
      50.2000     0.0252510
      50.3000     0.0248514
      50.4000     0.0244575
      50.5000     0.0240696
      50.6000     0.0236873
      50.7000     0.0233104
      50.8000     0.0229382
      50.9000     0.0225718
      51.0000     0.0222115
      51.1000     0.0218569
      51.2000     0.0215072
      51.3000     0.0211624
      51.4000     0.0208233
      51.5000     0.0204888
      51.6000     0.0201588
      51.7000     0.0198331
      51.8000     0.0195101
      51.9000     0.0191916
      52.0000     0.0188779
      52.1000     0.0185691
      52.2000     0.0182644
      52.3000     0.0179636
      52.4000     0.0176680
      52.5000     0.0173768
      52.6000     0.0170892
      52.7000     0.0168053
      52.8000     0.0165254
      52.9000     0.0162499
      53.0000     0.0159788
      53.1000     0.0157115
      53.2000     0.0154485
      53.3000     0.0151892
      53.4000     0.0149338
      53.5000     0.0146823
      53.6000     0.0144342
      53.7000     0.0141897
      53.8000     0.0139491
      53.9000     0.0137122
      54.0000     0.0134792
      54.1000     0.0132503
      54.2000     0.0130243
      54.3000     0.0128013
      54.4000     0.0125820
      54.5000     0.0123661
      54.6000     0.0121535
      54.7000     0.0119444
      54.8000     0.0117385
      54.9000     0.0115357
      55.0000     0.0113362
      55.1000     0.0111396
      55.2000     0.0109365
      55.3000     0.0107277
      55.4000     0.0105222
      55.5000     0.0103200
      55.6000     0.0101216
      55.7000    0.00992654
      55.8000    0.00973471
      55.9000    0.00954626
      56.0000    0.00936230
      56.1000    0.00917798
      56.2000    0.00899384
      56.3000    0.00881333
      56.4000    0.00863590
      56.5000    0.00846140
      56.6000    0.00828993
      56.7000    0.00812174
      56.8000    0.00795652
      56.9000    0.00779456
      57.0000    0.00763585
      57.1000    0.00748003
      57.2000    0.00732673
      57.3000    0.00717594
      57.4000    0.00702816
      57.5000    0.00688324
      57.6000    0.00674092
      57.7000    0.00660111
      57.8000    0.00646412
      57.9000    0.00632967
      58.0000    0.00619767
      58.1000    0.00606805
      58.2000    0.00594112
      58.3000    0.00581657
      58.4000    0.00569422
      58.5000    0.00557403
      58.6000    0.00545626
      58.7000    0.00534088
      58.8000    0.00522769
      58.9000    0.00511655
      59.0000    0.00500744
      59.1000    0.00490048
      59.2000    0.00479551
      59.3000    0.00469260
      59.4000    0.00459179
      59.5000    0.00449312
      59.6000    0.00439632
      59.7000    0.00430121
      59.8000    0.00420786
      59.9000    0.00411633
      60.0000    0.00402681
      60.1000    0.00393907
      60.2000    0.00385304
      60.3000    0.00376867
      60.4000    0.00368593
      60.5000    0.00360497
      60.6000    0.00352555
      60.7000    0.00344764
      60.8000    0.00337127
      60.9000    0.00329639
      61.0000    0.00322303
      61.1000    0.00315116
      61.2000    0.00308075
      61.3000    0.00301181
      61.4000    0.00294427
      61.5000    0.00287809
      61.6000    0.00281327
      61.7000    0.00274976
      61.8000    0.00268788
      61.9000    0.00262741
      62.0000    0.00256818
      62.1000    0.00251022
      62.2000    0.00245357
      62.3000    0.00239805
      62.4000    0.00234363
      62.5000    0.00229029
      62.6000    0.00223802
      62.7000    0.00218682
      62.8000    0.00213689
      62.9000    0.00208804
      63.0000    0.00204023
      63.1000    0.00199342
      63.2000    0.00194758
      63.3000    0.00190265
      63.4000    0.00185865
      63.5000    0.00181563
      63.6000    0.00177354
      63.7000    0.00173236
      63.8000    0.00169207
      63.9000    0.00165265
      64.0000    0.00161406
      64.1000    0.00157630
      64.2000    0.00153937
      64.3000    0.00150326
      64.4000    0.00146792
      64.5000    0.00143335
      64.6000    0.00139951
      64.7000    0.00136639
      64.8000    0.00133397
      64.9000    0.00130223
      65.0000    0.00127120
      65.1000    0.00124092
      65.2000    0.00121132
      65.3000    0.00118237
      65.4000    0.00115405
      65.5000    0.00112632
      65.6000    0.00109917
      65.7000    0.00107263
      65.8000    0.00104669
      65.9000    0.00102136
      66.0000   0.000996621
      66.1000   0.000972481
      66.2000   0.000948881
      66.3000   0.000925795
      66.4000   0.000903199
      66.5000   0.000881097
      66.6000   0.000859489
      66.7000   0.000838385
      66.8000   0.000817781
      66.9000   0.000797772
      67.0000   0.000778333
      67.1000   0.000759341
      67.2000   0.000740773
      67.3000   0.000722638
      67.4000   0.000704911
      67.5000   0.000687593
      67.6000   0.000670677
      67.7000   0.000654150
      67.8000   0.000637978
      67.9000   0.000622137
      68.0000   0.000606718
      68.1000   0.000591730
      68.2000   0.000577081
      68.3000   0.000562780
      68.4000   0.000548823
      68.5000   0.000535196
      68.6000   0.000521883
      68.7000   0.000508869
      68.8000   0.000496148
      68.9000   0.000483849
      69.0000   0.000472580
      69.1000   0.000463014
      69.2000   0.000454454
      69.3000   0.000446137
      69.4000   0.000438136
      69.5000   0.000430076
      69.6000   0.000421882
      69.7000   0.000413995
      69.8000   0.000406454
      69.9000   0.000399052
      70.0000   0.000391771
      70.1000   0.000384513
      70.2000   0.000377865
      70.3000   0.000371810
      70.4000   0.000365827
      70.5000   0.000359996
      70.6000   0.000354303
      70.7000   0.000348697
      70.8000   0.000343169
      70.9000   0.000337571
      71.0000   0.000331918
      71.1000   0.000326516
      71.2000   0.000321357
      71.3000   0.000315974
      71.4000   0.000310310
      71.5000   0.000305042
      71.6000   0.000300336
      71.7000   0.000295625
      71.8000   0.000290815
      71.9000   0.000286173
      72.0000   0.000281843
