Filter Al-poly
observation_date 22-Sept-2019 22:40:45
wavelength effective area 
      1.00000   2.78457e-10
      1.10000   7.94913e-10
      1.20000   2.06647e-09
      1.30000   4.94131e-09
      1.40000   1.12121e-08
      1.50000   2.39197e-08
      1.60000   4.84226e-08
      1.70000   9.40055e-08
      1.80000   1.75012e-07
      1.90000   3.14550e-07
      2.00000   5.46844e-07
      2.10000   9.23649e-07
      2.20000   1.52301e-06
      2.30000   2.44827e-06
      2.40000   3.84370e-06
      2.50000   5.87425e-06
      2.60000   8.96478e-06
      2.70000   1.33659e-05
      2.80000   1.95467e-05
      2.90000   2.82921e-05
      3.00000   4.03116e-05
      3.10000   5.66996e-05
      3.20000   7.88801e-05
      3.30000   0.000108623
      3.40000   0.000148023
      3.50000   0.000199764
      3.60000   0.000268355
      3.70000   0.000356674
      3.80000   0.000472103
      3.90000   0.000621432
      4.00000   0.000812916
      4.10000    0.00105849
      4.20000    0.00137336
      4.30000    0.00177686
      4.40000    0.00229282
      4.50000    0.00295054
      4.60000    0.00378427
      4.70000    0.00485354
      4.80000    0.00621874
      4.90000    0.00786562
      5.00000     0.0102109
      5.10000     0.0130689
      5.20000     0.0167770
      5.30000     0.0213555
      5.40000     0.0271407
      5.50000     0.0345546
      5.60000     0.0426452
      5.70000     0.0554487
      5.80000     0.0650255
      5.90000     0.0993161
      6.00000      0.133552
      6.10000      0.170755
      6.20000      0.209784
      6.30000      0.247053
      6.40000      0.279084
      6.50000      0.302733
      6.60000      0.313535
      6.70000      0.323505
      6.80000      0.324127
      6.90000      0.425494
      7.00000      0.463023
      7.10000      0.490030
      7.20000      0.511613
      7.30000      0.529370
      7.40000      0.543074
      7.50000      0.554112
      7.60000      0.562594
      7.70000      0.567024
      7.80000      0.566286
      7.90000      0.566242
      8.00000      0.955792
      8.10000       1.05176
      8.20000       1.07463
      8.30000       1.09287
      8.40000       1.10708
      8.50000       1.11972
      8.60000       1.13047
      8.70000       1.14000
      8.80000       1.14796
      8.90000       1.15489
      9.00000       1.16069
      9.10000       1.16540
      9.20000       1.16923
      9.30000       1.17206
      9.40000       1.17406
      9.50000       1.17528
      9.60000       1.17565
      9.70000       1.17529
      9.80000       1.17432
      9.90000       1.17278
      10.0000       1.17072
      10.1000       1.16817
      10.2000       1.16513
      10.3000       1.16155
      10.4000       1.15746
      10.5000       1.15289
      10.6000       1.14787
      10.7000       1.14241
      10.8000       1.13654
      10.9000       1.13028
      11.0000       1.12362
      11.1000       1.11662
      11.2000       1.10928
      11.3000       1.10162
      11.4000       1.09363
      11.5000       1.08530
      11.6000       1.07665
      11.7000       1.06758
      11.8000       1.05820
      11.9000       1.04832
      12.0000       1.03684
      12.1000       1.02900
      12.2000       1.03913
      12.3000       1.03839
      12.4000       1.02992
      12.5000       1.02066
      12.6000       1.01099
      12.7000       1.00107
      12.8000      0.990956
      12.9000      0.980655
      13.0000      0.970227
      13.1000      0.959705
      13.2000      0.949119
      13.3000      0.938483
      13.4000      0.927827
      13.5000      0.917309
      13.6000      0.906898
      13.7000      0.896487
      13.8000      0.886065
      13.9000      0.875669
      14.0000      0.865295
      14.1000      0.854915
      14.2000      0.844530
      14.3000      0.834131
      14.4000      0.823687
      14.5000      0.813213
      14.6000      0.802691
      14.7000      0.792132
      14.8000      0.781549
      14.9000      0.770945
      15.0000      0.760333
      15.1000      0.749740
      15.2000      0.739164
      15.3000      0.728613
      15.4000      0.718088
      15.5000      0.707601
      15.6000      0.697196
      15.7000      0.686832
      15.8000      0.676562
      15.9000      0.666384
      16.0000      0.656291
      16.1000      0.646295
      16.2000      0.636416
      16.3000      0.626604
      16.4000      0.616863
      16.5000      0.607187
      16.6000      0.597567
      16.7000      0.588003
      16.8000      0.578496
      16.9000      0.569048
      17.0000      0.559659
      17.1000      0.550328
      17.2000      0.541048
      17.3000      0.531833
      17.4000      0.522820
      17.5000      0.514036
      17.6000      0.505421
      17.7000      0.497043
      17.8000      0.489026
      17.9000      0.481091
      18.0000      0.473167
      18.1000      0.465285
      18.2000      0.457391
      18.3000      0.449457
      18.4000      0.441433
      18.5000      0.433352
      18.6000      0.425202
      18.7000      0.416919
      18.8000      0.408696
      18.9000      0.400537
      19.0000      0.392440
      19.1000      0.384445
      19.2000      0.376543
      19.3000      0.368757
      19.4000      0.361094
      19.5000      0.353538
      19.6000      0.346150
      19.7000      0.338864
      19.8000      0.331674
      19.9000      0.324622
      20.0000      0.317648
      20.1000      0.310758
      20.2000      0.303934
      20.3000      0.297175
      20.4000      0.290504
      20.5000      0.283885
      20.6000      0.277318
      20.7000      0.270827
      20.8000      0.264390
      20.9000      0.257993
      21.0000      0.251662
      21.1000      0.245403
      21.2000      0.239143
      21.3000      0.232933
      21.4000      0.226792
      21.5000      0.220653
      21.6000      0.214507
      21.7000      0.208368
      21.8000      0.202259
      21.9000      0.195924
      22.0000      0.189573
      22.1000      0.183100
      22.2000      0.176232
      22.3000      0.169036
      22.4000      0.159119
      22.5000      0.148428
      22.6000      0.126481
      22.7000      0.115522
      22.8000      0.157690
      22.9000      0.210454
      23.0000      0.268782
      23.1000      0.306439
      23.2000      0.323876
      23.3000      0.327826
      23.4000      0.324758
      23.5000      0.321249
      23.6000      0.317650
      23.7000      0.313177
      23.8000      0.308658
      23.9000      0.304017
      24.0000      0.299373
      24.1000      0.294515
      24.2000      0.289681
      24.3000      0.284839
      24.4000      0.280009
      24.5000      0.275145
      24.6000      0.270319
      24.7000      0.265529
      24.8000      0.260771
      24.9000      0.256042
      25.0000      0.251358
      25.1000      0.246725
      25.2000      0.242133
      25.3000      0.237586
      25.4000      0.233088
      25.5000      0.228654
      25.6000      0.224278
      25.7000      0.219974
      25.8000      0.215715
      25.9000      0.211524
      26.0000      0.207373
      26.1000      0.203282
      26.2000      0.199230
      26.3000      0.195253
      26.4000      0.191310
      26.5000      0.187431
      26.6000      0.183587
      26.7000      0.179817
      26.8000      0.176094
      26.9000      0.172420
      27.0000      0.168783
      27.1000      0.165166
      27.2000      0.161575
      27.3000      0.158386
      27.4000      0.155685
      27.5000      0.152881
      27.6000      0.149741
      27.7000      0.146627
      27.8000      0.143484
      27.9000      0.140370
      28.0000      0.137328
      28.1000      0.134323
      28.2000      0.131383
      28.3000      0.128497
      28.4000      0.125657
      28.5000      0.122881
      28.6000      0.120138
      28.7000      0.117509
      28.8000      0.114904
      28.9000      0.112362
      29.0000      0.109854
      29.1000      0.107391
      29.2000      0.104977
      29.3000      0.102592
      29.4000      0.100271
      29.5000     0.0979730
      29.6000     0.0957335
      29.7000     0.0935256
      29.8000     0.0913591
      29.9000     0.0892406
      30.0000     0.0871453
      30.1000     0.0851128
      30.2000     0.0831009
      30.3000     0.0844195
      30.4000     0.0876033
      30.5000     0.0896448
      30.6000     0.0876006
      30.7000     0.0855773
      30.8000     0.0836073
      30.9000     0.0816674
      31.0000     0.0797602
      31.1000     0.0779012
      31.2000     0.0760616
      31.3000     0.0742747
      31.4000     0.0725139
      31.5000     0.0707844
      31.6000     0.0691000
      31.7000     0.0674336
      31.8000     0.0658163
      31.9000     0.0642243
      32.0000     0.0626592
      32.1000     0.0611394
      32.2000     0.0596361
      32.3000     0.0581757
      32.4000     0.0567431
      32.5000     0.0553334
      32.6000     0.0539956
      32.7000     0.0526766
      32.8000     0.0513899
      32.9000     0.0501323
      33.0000     0.0488885
      33.1000     0.0477229
      33.2000     0.0465830
      33.3000     0.0454647
      33.4000     0.0443776
      33.5000     0.0433029
      33.6000     0.0422572
      33.7000     0.0412351
      33.8000     0.0402239
      33.9000     0.0392487
      34.0000     0.0382873
      34.1000     0.0373457
      34.2000     0.0364306
      34.3000     0.0355253
      34.4000     0.0346412
      34.5000     0.0337813
      34.6000     0.0329307
      34.7000     0.0320902
      34.8000     0.0312593
      34.9000     0.0304374
      35.0000     0.0296485
      35.1000     0.0288707
      35.2000     0.0281042
      35.3000     0.0273686
      35.4000     0.0266412
      35.5000     0.0259289
      35.6000     0.0252418
      35.7000     0.0245624
      35.8000     0.0239010
      35.9000     0.0232599
      36.0000     0.0226260
      36.1000     0.0220122
      36.2000     0.0214148
      36.3000     0.0208241
      36.4000     0.0202549
      36.5000     0.0196987
      36.6000     0.0191489
      36.7000     0.0186212
      36.8000     0.0181041
      36.9000     0.0175930
      37.0000     0.0171041
      37.1000     0.0166239
      37.2000     0.0161493
      37.3000     0.0156966
      37.4000     0.0152514
      37.5000     0.0148115
      37.6000     0.0143924
      37.7000     0.0139800
      37.8000     0.0135725
      37.9000     0.0131847
      38.0000     0.0128033
      38.1000     0.0124265
      38.2000     0.0120677
      38.3000     0.0117154
      38.4000     0.0113673
      38.5000     0.0110354
      38.6000     0.0107104
      38.7000     0.0103893
      38.8000     0.0100823
      38.9000    0.00978287
      39.0000    0.00948708
      39.1000    0.00920319
      39.2000    0.00892775
      39.3000    0.00865570
      39.4000    0.00839315
      39.5000    0.00814004
      39.6000    0.00789011
      39.7000    0.00764728
      39.8000    0.00741521
      39.9000    0.00718604
      40.0000    0.00696151
      40.1000    0.00674892
      40.2000    0.00653901
      40.3000    0.00633177
      40.4000    0.00613684
      40.5000    0.00594486
      40.6000    0.00575532
      40.7000    0.00557505
      40.8000    0.00539967
      40.9000    0.00522656
      41.0000    0.00505978
      41.1000    0.00489980
      41.2000    0.00474190
      41.3000    0.00458768
      41.4000    0.00444223
      41.5000    0.00429867
      41.6000    0.00415697
      41.7000    0.00402375
      41.8000    0.00389320
      41.9000    0.00376437
      42.0000    0.00364116
      42.1000    0.00352279
      42.2000    0.00340598
      42.3000    0.00329187
      42.4000    0.00318459
      42.5000    0.00307873
      42.6000    0.00297429
      42.7000    0.00287593
      42.8000    0.00278014
      42.9000    0.00268562
      43.0000    0.00259444
      43.1000    0.00250793
      43.2000    0.00242259
      43.3000    0.00233840
      43.4000    0.00739576
      43.5000     0.0167856
      43.6000     0.0347863
      43.7000     0.0588208
      43.8000     0.0759510
      43.9000     0.0790613
      44.0000     0.0768183
      44.1000     0.0696012
      44.2000     0.0679346
      44.3000     0.0667474
      44.4000     0.0655839
      44.5000     0.0644504
      44.6000     0.0633205
      44.7000     0.0621943
      44.8000     0.0611107
      44.9000     0.0600362
      45.0000     0.0589651
      45.1000     0.0579102
      45.2000     0.0568895
      45.3000     0.0558722
      45.4000     0.0548580
      45.5000     0.0538757
      45.6000     0.0529101
      45.7000     0.0519476
      45.8000     0.0509898
      45.9000     0.0500747
      46.0000     0.0491625
      46.1000     0.0482533
      46.2000     0.0474018
      46.3000     0.0466473
      46.4000     0.0458954
      46.5000     0.0451458
      46.6000     0.0444328
      46.7000     0.0437391
      46.8000     0.0430476
      46.9000     0.0423583
      47.0000     0.0417176
      47.1000     0.0410821
      47.2000     0.0404486
      47.3000     0.0398222
      47.4000     0.0392216
      47.5000     0.0386230
      47.6000     0.0380263
      47.7000     0.0374403
      47.8000     0.0368701
      47.9000     0.0363017
      48.0000     0.0357352
      48.1000     0.0351832
      48.2000     0.0346426
      48.3000     0.0341037
      48.4000     0.0335666
      48.5000     0.0330462
      48.6000     0.0325334
      48.7000     0.0320222
      48.8000     0.0315127
      48.9000     0.0310222
      49.0000     0.0305367
      49.1000     0.0300528
      49.2000     0.0295705
      49.3000     0.0291082
      49.4000     0.0286490
      49.5000     0.0281912
      49.6000     0.0277349
      49.7000     0.0272988
      49.8000     0.0268645
      49.9000     0.0264317
      50.0000     0.0260007
      50.1000     0.0255853
      50.2000     0.0251814
      50.3000     0.0247825
      50.4000     0.0243893
      50.5000     0.0240022
      50.6000     0.0236206
      50.7000     0.0232444
      50.8000     0.0228729
      50.9000     0.0225073
      51.0000     0.0221477
      51.1000     0.0217938
      51.2000     0.0214447
      51.3000     0.0211006
      51.4000     0.0207622
      51.5000     0.0204284
      51.6000     0.0200990
      51.7000     0.0197740
      51.8000     0.0194516
      51.9000     0.0191338
      52.0000     0.0188208
      52.1000     0.0185127
      52.2000     0.0182085
      52.3000     0.0179084
      52.4000     0.0176135
      52.5000     0.0173228
      52.6000     0.0170359
      52.7000     0.0167527
      52.8000     0.0164733
      52.9000     0.0161985
      53.0000     0.0159279
      53.1000     0.0156612
      53.2000     0.0153988
      53.3000     0.0151401
      53.4000     0.0148853
      53.5000     0.0146344
      53.6000     0.0143869
      53.7000     0.0141430
      53.8000     0.0139029
      53.9000     0.0136665
      54.0000     0.0134341
      54.1000     0.0132057
      54.2000     0.0129802
      54.3000     0.0127578
      54.4000     0.0125390
      54.5000     0.0123237
      54.6000     0.0121116
      54.7000     0.0119030
      54.8000     0.0116976
      54.9000     0.0114954
      55.0000     0.0112964
      55.1000     0.0111002
      55.2000     0.0108976
      55.3000     0.0106894
      55.4000     0.0104845
      55.5000     0.0102828
      55.6000     0.0100849
      55.7000    0.00989038
      55.8000    0.00969907
      55.9000    0.00951114
      56.0000    0.00932770
      56.1000    0.00914389
      56.2000    0.00896027
      56.3000    0.00878028
      56.4000    0.00860337
      56.5000    0.00842938
      56.6000    0.00825841
      56.7000    0.00809073
      56.8000    0.00792600
      56.9000    0.00776452
      57.0000    0.00760629
      57.1000    0.00745093
      57.2000    0.00729809
      57.3000    0.00714776
      57.4000    0.00700043
      57.5000    0.00685594
      57.6000    0.00671405
      57.7000    0.00657466
      57.8000    0.00643809
      57.9000    0.00630404
      58.0000    0.00617245
      58.1000    0.00604322
      58.2000    0.00591668
      58.3000    0.00579252
      58.4000    0.00567055
      58.5000    0.00555075
      58.6000    0.00543336
      58.7000    0.00531835
      58.8000    0.00520553
      58.9000    0.00509476
      59.0000    0.00498602
      59.1000    0.00487942
      59.2000    0.00477482
      59.3000    0.00467226
      59.4000    0.00457181
      59.5000    0.00447348
      59.6000    0.00437702
      59.7000    0.00428226
      59.8000    0.00418923
      59.9000    0.00409803
      60.0000    0.00400884
      60.1000    0.00392141
      60.2000    0.00383569
      60.3000    0.00375162
      60.4000    0.00366918
      60.5000    0.00358851
      60.6000    0.00350937
      60.7000    0.00343174
      60.8000    0.00335565
      60.9000    0.00328103
      61.0000    0.00320794
      61.1000    0.00313633
      61.2000    0.00306618
      61.3000    0.00299749
      61.4000    0.00293020
      61.5000    0.00286426
      61.6000    0.00279969
      61.7000    0.00273642
      61.8000    0.00267478
      61.9000    0.00261454
      62.0000    0.00255555
      62.1000    0.00249782
      62.2000    0.00244140
      62.3000    0.00238611
      62.4000    0.00233191
      62.5000    0.00227879
      62.6000    0.00222674
      62.7000    0.00217576
      62.8000    0.00212604
      62.9000    0.00207740
      63.0000    0.00202979
      63.1000    0.00198318
      63.2000    0.00193753
      63.3000    0.00189280
      63.4000    0.00184898
      63.5000    0.00180615
      63.6000    0.00176424
      63.7000    0.00172323
      63.8000    0.00168311
      63.9000    0.00164386
      64.0000    0.00160544
      64.1000    0.00156784
      64.2000    0.00153107
      64.3000    0.00149511
      64.4000    0.00145993
      64.5000    0.00142551
      64.6000    0.00139182
      64.7000    0.00135884
      64.8000    0.00132656
      64.9000    0.00129497
      65.0000    0.00126407
      65.1000    0.00123392
      65.2000    0.00120446
      65.3000    0.00117565
      65.4000    0.00114746
      65.5000    0.00111986
      65.6000    0.00109284
      65.7000    0.00106642
      65.8000    0.00104062
      65.9000    0.00101541
      66.0000   0.000990791
      66.1000   0.000966771
      66.2000   0.000943290
      66.3000   0.000920319
      66.4000   0.000897838
      66.5000   0.000875848
      66.6000   0.000854350
      66.7000   0.000833354
      66.8000   0.000812855
      66.9000   0.000792950
      67.0000   0.000773612
      67.1000   0.000754719
      67.2000   0.000736248
      67.3000   0.000718208
      67.4000   0.000700574
      67.5000   0.000683347
      67.6000   0.000666519
      67.7000   0.000650078
      67.8000   0.000633991
      67.9000   0.000618233
      68.0000   0.000602896
      68.1000   0.000587987
      68.2000   0.000573417
      68.3000   0.000559194
      68.4000   0.000545311
      68.5000   0.000531759
      68.6000   0.000518518
      68.7000   0.000505575
      68.8000   0.000492925
      68.9000   0.000480694
      69.0000   0.000469486
      69.1000   0.000459973
      69.2000   0.000451459
      69.3000   0.000443186
      69.4000   0.000435229
      69.5000   0.000427213
      69.6000   0.000419066
      69.7000   0.000411223
      69.8000   0.000403725
      69.9000   0.000396364
      70.0000   0.000389125
      70.1000   0.000381909
      70.2000   0.000375298
      70.3000   0.000369277
      70.4000   0.000363329
      70.5000   0.000357531
      70.6000   0.000351870
      70.7000   0.000346296
      70.8000   0.000340800
      70.9000   0.000335233
      71.0000   0.000329614
      71.1000   0.000324242
      71.2000   0.000319112
      71.3000   0.000313761
      71.4000   0.000308130
      71.5000   0.000302893
      71.6000   0.000298213
      71.7000   0.000293529
      71.8000   0.000288747
      71.9000   0.000284130
      72.0000   0.000279825
