Filter Al-poly
observation_date 22-Sept-2013 22:40:45
wavelength effective area 
      1.00000   2.78457e-10
      1.10000   7.94914e-10
      1.20000   2.06648e-09
      1.30000   4.94133e-09
      1.40000   1.12122e-08
      1.50000   2.39198e-08
      1.60000   4.84229e-08
      1.70000   9.40062e-08
      1.80000   1.75014e-07
      1.90000   3.14554e-07
      2.00000   5.46851e-07
      2.10000   9.23663e-07
      2.20000   1.52304e-06
      2.30000   2.44832e-06
      2.40000   3.84378e-06
      2.50000   5.87440e-06
      2.60000   8.96504e-06
      2.70000   1.33663e-05
      2.80000   1.95474e-05
      2.90000   2.82932e-05
      3.00000   4.03134e-05
      3.10000   5.67024e-05
      3.20000   7.88844e-05
      3.30000   0.000108629
      3.40000   0.000148032
      3.50000   0.000199778
      3.60000   0.000268376
      3.70000   0.000356704
      3.80000   0.000472147
      3.90000   0.000621493
      4.00000   0.000813003
      4.10000    0.00105862
      4.20000    0.00137353
      4.30000    0.00177709
      4.40000    0.00229315
      4.50000    0.00295099
      4.60000    0.00378489
      4.70000    0.00485438
      4.80000    0.00621988
      4.90000    0.00786715
      5.00000     0.0102130
      5.10000     0.0130718
      5.20000     0.0167809
      5.30000     0.0213607
      5.40000     0.0271477
      5.50000     0.0345640
      5.60000     0.0426575
      5.70000     0.0554655
      5.80000     0.0650462
      5.90000     0.0993494
      6.00000      0.133599
      6.10000      0.170818
      6.20000      0.209865
      6.30000      0.247153
      6.40000      0.279203
      6.50000      0.302868
      6.60000      0.313681
      6.70000      0.323661
      6.80000      0.324291
      6.90000      0.425718
      7.00000      0.463277
      7.10000      0.490310
      7.20000      0.511918
      7.30000      0.529698
      7.40000      0.543423
      7.50000      0.554483
      7.60000      0.562985
      7.70000      0.567433
      7.80000      0.566710
      7.90000      0.566682
      8.00000      0.956561
      8.10000       1.05264
      8.20000       1.07556
      8.30000       1.09385
      8.40000       1.10810
      8.50000       1.12080
      8.60000       1.13158
      8.70000       1.14117
      8.80000       1.14917
      8.90000       1.15615
      9.00000       1.16199
      9.10000       1.16675
      9.20000       1.17062
      9.30000       1.17351
      9.40000       1.17555
      9.50000       1.17682
      9.60000       1.17724
      9.70000       1.17692
      9.80000       1.17600
      9.90000       1.17451
      10.0000       1.17250
      10.1000       1.16998
      10.2000       1.16699
      10.3000       1.16346
      10.4000       1.15941
      10.5000       1.15488
      10.6000       1.14991
      10.7000       1.14450
      10.8000       1.13867
      10.9000       1.13245
      11.0000       1.12584
      11.1000       1.11888
      11.2000       1.11157
      11.3000       1.10396
      11.4000       1.09601
      11.5000       1.08772
      11.6000       1.07911
      11.7000       1.07007
      11.8000       1.06073
      11.9000       1.05089
      12.0000       1.03944
      12.1000       1.03164
      12.2000       1.04186
      12.3000       1.04117
      12.4000       1.03275
      12.5000       1.02352
      12.6000       1.01389
      12.7000       1.00400
      12.8000      0.993920
      12.9000      0.983651
      13.0000      0.973254
      13.1000      0.962764
      13.2000      0.952207
      13.3000      0.941600
      13.4000      0.930972
      13.5000      0.920481
      13.6000      0.910097
      13.7000      0.899711
      13.8000      0.889314
      13.9000      0.878942
      14.0000      0.868592
      14.1000      0.858235
      14.2000      0.847872
      14.3000      0.837494
      14.4000      0.827072
      14.5000      0.816617
      14.6000      0.806113
      14.7000      0.795572
      14.8000      0.785006
      14.9000      0.774417
      15.0000      0.763821
      15.1000      0.753241
      15.2000      0.742678
      15.3000      0.732138
      15.4000      0.721624
      15.5000      0.711148
      15.6000      0.700752
      15.7000      0.690395
      15.8000      0.680133
      15.9000      0.669962
      16.0000      0.659874
      16.1000      0.649883
      16.2000      0.640009
      16.3000      0.630200
      16.4000      0.620461
      16.5000      0.610786
      16.6000      0.601167
      16.7000      0.591603
      16.8000      0.582094
      16.9000      0.572643
      17.0000      0.563252
      17.1000      0.553917
      17.2000      0.544632
      17.3000      0.535410
      17.4000      0.526390
      17.5000      0.517598
      17.6000      0.508974
      17.7000      0.500586
      17.8000      0.492559
      17.9000      0.484613
      18.0000      0.476677
      18.1000      0.468783
      18.2000      0.460876
      18.3000      0.452926
      18.4000      0.444887
      18.5000      0.436789
      18.6000      0.428621
      18.7000      0.420318
      18.8000      0.412073
      18.9000      0.403892
      19.0000      0.395772
      19.1000      0.387753
      19.2000      0.379827
      19.3000      0.372017
      19.4000      0.364327
      19.5000      0.356746
      19.6000      0.349332
      19.7000      0.342019
      19.8000      0.334801
      19.9000      0.327722
      20.0000      0.320720
      20.1000      0.313800
      20.2000      0.306947
      20.3000      0.300157
      20.4000      0.293456
      20.5000      0.286805
      20.6000      0.280205
      20.7000      0.273681
      20.8000      0.267210
      20.9000      0.260778
      21.0000      0.254411
      21.1000      0.248116
      21.2000      0.241818
      21.3000      0.235569
      21.4000      0.229390
      21.5000      0.223210
      21.6000      0.217022
      21.7000      0.210839
      21.8000      0.204686
      21.9000      0.198303
      22.0000      0.191901
      22.1000      0.185374
      22.2000      0.178446
      22.3000      0.171184
      22.4000      0.161164
      22.5000      0.150357
      22.6000      0.128143
      22.7000      0.116991
      22.8000      0.159420
      22.9000      0.212516
      23.0000      0.271414
      23.1000      0.309458
      23.2000      0.327129
      23.3000      0.331154
      23.4000      0.328091
      23.5000      0.324582
      23.6000      0.320981
      23.7000      0.316496
      23.8000      0.311965
      23.9000      0.307310
      24.0000      0.302649
      24.1000      0.297773
      24.2000      0.292919
      24.3000      0.288057
      24.4000      0.283205
      24.5000      0.278319
      24.6000      0.273469
      24.7000      0.268656
      24.8000      0.263874
      24.9000      0.259120
      25.0000      0.254410
      25.1000      0.249751
      25.2000      0.245133
      25.3000      0.240559
      25.4000      0.236035
      25.5000      0.231574
      25.6000      0.227171
      25.7000      0.222838
      25.8000      0.218552
      25.9000      0.214333
      26.0000      0.210153
      26.1000      0.206033
      26.2000      0.201953
      26.3000      0.197946
      26.4000      0.193974
      26.5000      0.190067
      26.6000      0.186192
      26.7000      0.182393
      26.8000      0.178640
      26.9000      0.174936
      27.0000      0.171269
      27.1000      0.167622
      27.2000      0.163999
      27.3000      0.160785
      27.4000      0.158065
      27.5000      0.155238
      27.6000      0.152072
      27.7000      0.148929
      27.8000      0.145758
      27.9000      0.142615
      28.0000      0.139544
      28.1000      0.136509
      28.2000      0.133541
      28.3000      0.130625
      28.4000      0.127757
      28.5000      0.124953
      28.6000      0.122182
      28.7000      0.119525
      28.8000      0.116893
      28.9000      0.114323
      29.0000      0.111788
      29.1000      0.109299
      29.2000      0.106857
      29.3000      0.104446
      29.4000      0.102098
      29.5000     0.0997739
      29.6000     0.0975082
      29.7000     0.0952741
      29.8000     0.0930816
      29.9000     0.0909374
      30.0000     0.0888160
      30.1000     0.0867581
      30.2000     0.0847207
      30.3000     0.0860786
      30.4000     0.0893393
      30.5000     0.0914361
      30.6000     0.0893655
      30.7000     0.0873156
      30.8000     0.0853194
      30.9000     0.0833534
      31.0000     0.0814201
      31.1000     0.0795355
      31.2000     0.0776703
      31.3000     0.0758583
      31.4000     0.0740724
      31.5000     0.0723180
      31.6000     0.0706090
      31.7000     0.0689179
      31.8000     0.0672764
      31.9000     0.0656603
      32.0000     0.0640713
      32.1000     0.0625280
      32.2000     0.0610012
      32.3000     0.0595179
      32.4000     0.0580624
      32.5000     0.0566298
      32.6000     0.0552702
      32.7000     0.0539291
      32.8000     0.0526208
      32.9000     0.0513419
      33.0000     0.0500768
      33.1000     0.0488909
      33.2000     0.0477309
      33.3000     0.0465926
      33.4000     0.0454860
      33.5000     0.0443917
      33.6000     0.0433269
      33.7000     0.0422860
      33.8000     0.0412559
      33.9000     0.0402624
      34.0000     0.0392828
      34.1000     0.0383231
      34.2000     0.0373904
      34.3000     0.0364674
      34.4000     0.0355658
      34.5000     0.0346889
      34.6000     0.0338212
      34.7000     0.0329637
      34.8000     0.0321158
      34.9000     0.0312769
      35.0000     0.0304715
      35.1000     0.0296773
      35.2000     0.0288944
      35.3000     0.0281431
      35.4000     0.0273998
      35.5000     0.0266719
      35.6000     0.0259698
      35.7000     0.0252753
      35.8000     0.0245991
      35.9000     0.0239436
      36.0000     0.0232953
      36.1000     0.0226675
      36.2000     0.0220562
      36.3000     0.0214518
      36.4000     0.0208692
      36.5000     0.0202998
      36.6000     0.0197368
      36.7000     0.0191965
      36.8000     0.0186669
      36.9000     0.0181432
      37.0000     0.0176423
      37.1000     0.0171502
      37.2000     0.0166638
      37.3000     0.0161997
      37.4000     0.0157432
      37.5000     0.0152920
      37.6000     0.0148621
      37.7000     0.0144390
      37.8000     0.0140208
      37.9000     0.0136228
      38.0000     0.0132313
      38.1000     0.0128443
      38.2000     0.0124759
      38.3000     0.0121140
      38.4000     0.0117564
      38.5000     0.0114154
      38.6000     0.0110814
      38.7000     0.0107513
      38.8000     0.0104356
      38.9000     0.0101277
      39.0000    0.00982343
      39.1000    0.00953138
      39.2000    0.00924797
      39.3000    0.00896796
      39.4000    0.00869768
      39.5000    0.00843710
      39.6000    0.00817969
      39.7000    0.00792956
      39.8000    0.00769048
      39.9000    0.00745432
      40.0000    0.00722289
      40.1000    0.00700376
      40.2000    0.00678732
      40.3000    0.00657357
      40.4000    0.00637253
      40.5000    0.00617447
      40.6000    0.00597885
      40.7000    0.00579280
      40.8000    0.00561175
      40.9000    0.00543298
      41.0000    0.00526072
      41.1000    0.00509546
      41.2000    0.00493231
      41.3000    0.00477291
      41.4000    0.00462257
      41.5000    0.00447413
      41.6000    0.00432759
      41.7000    0.00418980
      41.8000    0.00405474
      41.9000    0.00392142
      42.0000    0.00379391
      42.1000    0.00367137
      42.2000    0.00355041
      42.3000    0.00343222
      42.4000    0.00332109
      42.5000    0.00321141
      42.6000    0.00310315
      42.7000    0.00300119
      42.8000    0.00290187
      42.9000    0.00280384
      43.0000    0.00270925
      43.1000    0.00261950
      43.2000    0.00253093
      43.3000    0.00244353
      43.4000    0.00773003
      43.5000     0.0174214
      43.6000     0.0356866
      43.7000     0.0595155
      43.8000     0.0760229
      43.9000     0.0789509
      44.0000     0.0767481
      44.1000     0.0697712
      44.2000     0.0681206
      44.3000     0.0669315
      44.4000     0.0657661
      44.5000     0.0646306
      44.6000     0.0634988
      44.7000     0.0623705
      44.8000     0.0612850
      44.9000     0.0602085
      45.0000     0.0591355
      45.1000     0.0580787
      45.2000     0.0570561
      45.3000     0.0560369
      45.4000     0.0550208
      45.5000     0.0540367
      45.6000     0.0530692
      45.7000     0.0521049
      45.8000     0.0511452
      45.9000     0.0502283
      46.0000     0.0493143
      46.1000     0.0484033
      46.2000     0.0475501
      46.3000     0.0467942
      46.4000     0.0460408
      46.5000     0.0452898
      46.6000     0.0445754
      46.7000     0.0438804
      46.8000     0.0431876
      46.9000     0.0424969
      47.0000     0.0418550
      47.1000     0.0412183
      47.2000     0.0405835
      47.3000     0.0399559
      47.4000     0.0393542
      47.5000     0.0387543
      47.6000     0.0381564
      47.7000     0.0375692
      47.8000     0.0369979
      47.9000     0.0364283
      48.0000     0.0358606
      48.1000     0.0353073
      48.2000     0.0347656
      48.3000     0.0342256
      48.4000     0.0336873
      48.5000     0.0331658
      48.6000     0.0326519
      48.7000     0.0321396
      48.8000     0.0316289
      48.9000     0.0311374
      49.0000     0.0306508
      49.1000     0.0301658
      49.2000     0.0296824
      49.3000     0.0292191
      49.4000     0.0287587
      49.5000     0.0282998
      49.6000     0.0278424
      49.7000     0.0274052
      49.8000     0.0269699
      49.9000     0.0265360
      50.0000     0.0261038
      50.1000     0.0256873
      50.2000     0.0252823
      50.3000     0.0248823
      50.4000     0.0244881
      50.5000     0.0240999
      50.6000     0.0237173
      50.7000     0.0233401
      50.8000     0.0229676
      50.9000     0.0226010
      51.0000     0.0222404
      51.1000     0.0218855
      51.2000     0.0215355
      51.3000     0.0211904
      51.4000     0.0208510
      51.5000     0.0205162
      51.6000     0.0201858
      51.7000     0.0198598
      51.8000     0.0195365
      51.9000     0.0192177
      52.0000     0.0189037
      52.1000     0.0185946
      52.2000     0.0182895
      52.3000     0.0179884
      52.4000     0.0176925
      52.5000     0.0174010
      52.6000     0.0171131
      52.7000     0.0168290
      52.8000     0.0165487
      52.9000     0.0162730
      53.0000     0.0160016
      53.1000     0.0157341
      53.2000     0.0154708
      53.3000     0.0152113
      53.4000     0.0149557
      53.5000     0.0147040
      53.6000     0.0144556
      53.7000     0.0142109
      53.8000     0.0139701
      53.9000     0.0137329
      54.0000     0.0134997
      54.1000     0.0132705
      54.2000     0.0130442
      54.3000     0.0128210
      54.4000     0.0126014
      54.5000     0.0123853
      54.6000     0.0121725
      54.7000     0.0119631
      54.8000     0.0117570
      54.9000     0.0115539
      55.0000     0.0113542
      55.1000     0.0111573
      55.2000     0.0109539
      55.3000     0.0107449
      55.4000     0.0105392
      55.5000     0.0103368
      55.6000     0.0101380
      55.7000    0.00994276
      55.8000    0.00975069
      55.9000    0.00956202
      56.0000    0.00937785
      56.1000    0.00919330
      56.2000    0.00900894
      56.3000    0.00882821
      56.4000    0.00865058
      56.5000    0.00847586
      56.6000    0.00830417
      56.7000    0.00813578
      56.8000    0.00797036
      56.9000    0.00780818
      57.0000    0.00764927
      57.1000    0.00749324
      57.2000    0.00733973
      57.3000    0.00718874
      57.4000    0.00704076
      57.5000    0.00689563
      57.6000    0.00675311
      57.7000    0.00661309
      57.8000    0.00647590
      57.9000    0.00634125
      58.0000    0.00620906
      58.1000    0.00607924
      58.2000    0.00595212
      58.3000    0.00582739
      58.4000    0.00570485
      58.5000    0.00558448
      58.6000    0.00546654
      58.7000    0.00535098
      58.8000    0.00523763
      58.9000    0.00512632
      59.0000    0.00501705
      59.1000    0.00490993
      59.2000    0.00480481
      59.3000    0.00470175
      59.4000    0.00460079
      59.5000    0.00450197
      59.6000    0.00440503
      59.7000    0.00430978
      59.8000    0.00421628
      59.9000    0.00412461
      60.0000    0.00403496
      60.1000    0.00394708
      60.2000    0.00386092
      60.3000    0.00377642
      60.4000    0.00369354
      60.5000    0.00361245
      60.6000    0.00353290
      60.7000    0.00345486
      60.8000    0.00337836
      60.9000    0.00330335
      61.0000    0.00322987
      61.1000    0.00315788
      61.2000    0.00308734
      61.3000    0.00301828
      61.4000    0.00295062
      61.5000    0.00288432
      61.6000    0.00281938
      61.7000    0.00275576
      61.8000    0.00269376
      61.9000    0.00263318
      62.0000    0.00257385
      62.1000    0.00251579
      62.2000    0.00245903
      62.3000    0.00240342
      62.4000    0.00234889
      62.5000    0.00229546
      62.6000    0.00224309
      62.7000    0.00219180
      62.8000    0.00214178
      62.9000    0.00209285
      63.0000    0.00204495
      63.1000    0.00199805
      63.2000    0.00195212
      63.3000    0.00190712
      63.4000    0.00186303
      63.5000    0.00181994
      63.6000    0.00177776
      63.7000    0.00173650
      63.8000    0.00169613
      63.9000    0.00165664
      64.0000    0.00161798
      64.1000    0.00158014
      64.2000    0.00154314
      64.3000    0.00150696
      64.4000    0.00147155
      64.5000    0.00143690
      64.6000    0.00140300
      64.7000    0.00136981
      64.8000    0.00133732
      64.9000    0.00130552
      65.0000    0.00127442
      65.1000    0.00124407
      65.2000    0.00121441
      65.3000    0.00118540
      65.4000    0.00115701
      65.5000    0.00112922
      65.6000    0.00110201
      65.7000    0.00107542
      65.8000    0.00104943
      65.9000    0.00102404
      66.0000   0.000999245
      66.1000   0.000975052
      66.2000   0.000951400
      66.3000   0.000928263
      66.4000   0.000905618
      66.5000   0.000883466
      66.6000   0.000861810
      66.7000   0.000840658
      66.8000   0.000820008
      66.9000   0.000799954
      67.0000   0.000780470
      67.1000   0.000761434
      67.2000   0.000742823
      67.3000   0.000724646
      67.4000   0.000706877
      67.5000   0.000689519
      67.6000   0.000672563
      67.7000   0.000655996
      67.8000   0.000639786
      67.9000   0.000623907
      68.0000   0.000608451
      68.1000   0.000593426
      68.2000   0.000578741
      68.3000   0.000564405
      68.4000   0.000550412
      68.5000   0.000536752
      68.6000   0.000523404
      68.7000   0.000510358
      68.8000   0.000497604
      68.9000   0.000485274
      69.0000   0.000473976
      69.1000   0.000464387
      69.2000   0.000455805
      69.3000   0.000447467
      69.4000   0.000439447
      69.5000   0.000431366
      69.6000   0.000423152
      69.7000   0.000415245
      69.8000   0.000407686
      69.9000   0.000400264
      70.0000   0.000392965
      70.1000   0.000385689
      70.2000   0.000379024
      70.3000   0.000372954
      70.4000   0.000366956
      70.5000   0.000361111
      70.6000   0.000355403
      70.7000   0.000349784
      70.8000   0.000344242
      70.9000   0.000338629
      71.0000   0.000332962
      71.1000   0.000327546
      71.2000   0.000322374
      71.3000   0.000316978
      71.4000   0.000311299
      71.5000   0.000306017
      71.6000   0.000301299
      71.7000   0.000296576
      71.8000   0.000291754
      71.9000   0.000287099
      72.0000   0.000282758
