Filter Al-poly
observation_date 22Sept2020
wavelength effective area
      1.00000   2.78457e-10
      1.10000   7.94912e-10
      1.20000   2.06647e-09
      1.30000   4.94130e-09
      1.40000   1.12121e-08
      1.50000   2.39196e-08
      1.60000   4.84224e-08
      1.70000   9.40051e-08
      1.80000   1.75011e-07
      1.90000   3.14549e-07
      2.00000   5.46840e-07
      2.10000   9.23641e-07
      2.20000   1.52300e-06
      2.30000   2.44824e-06
      2.40000   3.84365e-06
      2.50000   5.87417e-06
      2.60000   8.96464e-06
      2.70000   1.33657e-05
      2.80000   1.95463e-05
      2.90000   2.82915e-05
      3.00000   4.03106e-05
      3.10000   5.66981e-05
      3.20000   7.88778e-05
      3.30000   0.000108619
      3.40000   0.000148017
      3.50000   0.000199757
      3.60000   0.000268344
      3.70000   0.000356658
      3.80000   0.000472080
      3.90000   0.000621399
      4.00000   0.000812870
      4.10000    0.00105843
      4.20000    0.00137327
      4.30000    0.00177673
      4.40000    0.00229265
      4.50000    0.00295030
      4.60000    0.00378395
      4.70000    0.00485310
      4.80000    0.00621813
      4.90000    0.00786480
      5.00000     0.0102098
      5.10000     0.0130674
      5.20000     0.0167749
      5.30000     0.0213527
      5.40000     0.0271370
      5.50000     0.0345495
      5.60000     0.0426387
      5.70000     0.0554397
      5.80000     0.0650144
      5.90000     0.0992983
      6.00000      0.133527
      6.10000      0.170722
      6.20000      0.209741
      6.30000      0.247000
      6.40000      0.279021
      6.50000      0.302662
      6.60000      0.313458
      6.70000      0.323421
      6.80000      0.324040
      6.90000      0.425374
      7.00000      0.462887
      7.10000      0.489880
      7.20000      0.511450
      7.30000      0.529195
      7.40000      0.542887
      7.50000      0.553914
      7.60000      0.562385
      7.70000      0.566805
      7.80000      0.566060
      7.90000      0.566007
      8.00000      0.955381
      8.10000       1.05129
      8.20000       1.07414
      8.30000       1.09235
      8.40000       1.10653
      8.50000       1.11915
      8.60000       1.12987
      8.70000       1.13938
      8.80000       1.14732
      8.90000       1.15422
      9.00000       1.15999
      9.10000       1.16467
      9.20000       1.16848
      9.30000       1.17129
      9.40000       1.17326
      9.50000       1.17446
      9.60000       1.17481
      9.70000       1.17442
      9.80000       1.17343
      9.90000       1.17186
      10.0000       1.16978
      10.1000       1.16720
      10.2000       1.16413
      10.3000       1.16053
      10.4000       1.15642
      10.5000       1.15182
      10.6000       1.14678
      10.7000       1.14130
      10.8000       1.13541
      10.9000       1.12912
      11.0000       1.12244
      11.1000       1.11542
      11.2000       1.10805
      11.3000       1.10037
      11.4000       1.09236
      11.5000       1.08401
      11.6000       1.07534
      11.7000       1.06625
      11.8000       1.05685
      11.9000       1.04695
      12.0000       1.03546
      12.1000       1.02760
      12.2000       1.03768
      12.3000       1.03690
      12.4000       1.02842
      12.5000       1.01914
      12.6000       1.00945
      12.7000      0.999510
      12.8000      0.989375
      12.9000      0.979057
      13.0000      0.968612
      13.1000      0.958075
      13.2000      0.947472
      13.3000      0.936822
      13.4000      0.926151
      13.5000      0.915618
      13.6000      0.905194
      13.7000      0.894769
      13.8000      0.884333
      13.9000      0.873924
      14.0000      0.863538
      14.1000      0.853145
      14.2000      0.842748
      14.3000      0.832338
      14.4000      0.821884
      14.5000      0.811400
      14.6000      0.800867
      14.7000      0.790300
      14.8000      0.779708
      14.9000      0.769095
      15.0000      0.758476
      15.1000      0.747875
      15.2000      0.737293
      15.3000      0.726735
      15.4000      0.716205
      15.5000      0.705713
      15.6000      0.695303
      15.7000      0.684934
      15.8000      0.674661
      15.9000      0.664480
      16.0000      0.654384
      16.1000      0.644385
      16.2000      0.634505
      16.3000      0.624691
      16.4000      0.614949
      16.5000      0.605272
      16.6000      0.595652
      16.7000      0.586088
      16.8000      0.576582
      16.9000      0.567135
      17.0000      0.557749
      17.1000      0.548420
      17.2000      0.539143
      17.3000      0.529931
      17.4000      0.520921
      17.5000      0.512142
      17.6000      0.503532
      17.7000      0.495159
      17.8000      0.487147
      17.9000      0.479218
      18.0000      0.471301
      18.1000      0.463426
      18.2000      0.455540
      18.3000      0.447613
      18.4000      0.439598
      18.5000      0.431526
      18.6000      0.423386
      18.7000      0.415114
      18.8000      0.406902
      18.9000      0.398755
      19.0000      0.390670
      19.1000      0.382688
      19.2000      0.374799
      19.3000      0.367027
      19.4000      0.359377
      19.5000      0.351836
      19.6000      0.344462
      19.7000      0.337190
      19.8000      0.330015
      19.9000      0.322978
      20.0000      0.316019
      20.1000      0.309144
      20.2000      0.302336
      20.3000      0.295593
      20.4000      0.288939
      20.5000      0.282336
      20.6000      0.275787
      20.7000      0.269314
      20.8000      0.262895
      20.9000      0.256517
      21.0000      0.250205
      21.1000      0.243965
      21.2000      0.237725
      21.3000      0.231536
      21.4000      0.225416
      21.5000      0.219298
      21.6000      0.213175
      21.7000      0.207059
      21.8000      0.200974
      21.9000      0.194665
      22.0000      0.188341
      22.1000      0.181896
      22.2000      0.175060
      22.3000      0.167900
      22.4000      0.158037
      22.5000      0.147407
      22.6000      0.125601
      22.7000      0.114744
      22.8000      0.156773
      22.9000      0.209359
      23.0000      0.267385
      23.1000      0.304837
      23.2000      0.322151
      23.3000      0.326061
      23.4000      0.322990
      23.5000      0.319482
      23.6000      0.315883
      23.7000      0.311416
      23.8000      0.306904
      23.9000      0.302272
      24.0000      0.297636
      24.1000      0.292788
      24.2000      0.287965
      24.3000      0.283134
      24.4000      0.278315
      24.5000      0.273464
      24.6000      0.268650
      24.7000      0.263873
      24.8000      0.259128
      24.9000      0.254412
      25.0000      0.249742
      25.1000      0.245122
      25.2000      0.240544
      25.3000      0.236011
      25.4000      0.231528
      25.5000      0.227108
      25.6000      0.222747
      25.7000      0.218458
      25.8000      0.214214
      25.9000      0.210038
      26.0000      0.205902
      26.1000      0.201826
      26.2000      0.197790
      26.3000      0.193828
      26.4000      0.189901
      26.5000      0.186038
      26.6000      0.182209
      26.7000      0.178455
      26.8000      0.174748
      26.9000      0.171090
      27.0000      0.167469
      27.1000      0.163868
      27.2000      0.160294
      27.3000      0.157119
      27.4000      0.154428
      27.5000      0.151635
      27.6000      0.148510
      27.7000      0.145411
      27.8000      0.142284
      27.9000      0.139185
      28.0000      0.136159
      28.1000      0.133169
      28.2000      0.130244
      28.3000      0.127373
      28.4000      0.124548
      28.5000      0.121788
      28.6000      0.119060
      28.7000      0.116445
      28.8000      0.113855
      28.9000      0.111327
      29.0000      0.108833
      29.1000      0.106385
      29.2000      0.103985
      29.3000      0.101615
      29.4000     0.0993076
      29.5000     0.0970238
      29.6000     0.0947982
      29.7000     0.0926042
      29.8000     0.0904517
      29.9000     0.0883469
      30.0000     0.0862652
      30.1000     0.0842461
      30.2000     0.0822478
      30.3000     0.0835457
      30.4000     0.0866892
      30.5000     0.0887019
      30.6000     0.0866717
      30.7000     0.0846625
      30.8000     0.0827063
      30.9000     0.0807802
      31.0000     0.0788869
      31.1000     0.0770414
      31.2000     0.0752154
      31.3000     0.0734419
      31.4000     0.0716944
      31.5000     0.0699782
      31.6000     0.0683068
      31.7000     0.0666535
      31.8000     0.0650490
      31.9000     0.0634696
      32.0000     0.0619172
      32.1000     0.0604098
      32.2000     0.0589190
      32.3000     0.0574709
      32.4000     0.0560504
      32.5000     0.0546527
      32.6000     0.0533265
      32.7000     0.0520191
      32.8000     0.0507438
      32.9000     0.0494974
      33.0000     0.0482650
      33.1000     0.0471101
      33.2000     0.0459809
      33.3000     0.0448732
      33.4000     0.0437964
      33.5000     0.0427319
      33.6000     0.0416963
      33.7000     0.0406841
      33.8000     0.0396829
      33.9000     0.0387174
      34.0000     0.0377657
      34.1000     0.0368336
      34.2000     0.0359279
      34.3000     0.0350318
      34.4000     0.0341568
      34.5000     0.0333059
      34.6000     0.0324642
      34.7000     0.0316327
      34.8000     0.0308109
      34.9000     0.0299981
      35.0000     0.0292178
      35.1000     0.0284487
      35.2000     0.0276908
      35.3000     0.0269635
      35.4000     0.0262443
      35.5000     0.0255402
      35.6000     0.0248610
      35.7000     0.0241896
      35.8000     0.0235360
      35.9000     0.0229025
      36.0000     0.0222762
      36.1000     0.0216699
      36.2000     0.0210797
      36.3000     0.0204963
      36.4000     0.0199340
      36.5000     0.0193847
      36.6000     0.0188418
      36.7000     0.0183208
      36.8000     0.0178103
      36.9000     0.0173058
      37.0000     0.0168232
      37.1000     0.0163493
      37.2000     0.0158809
      37.3000     0.0154342
      37.4000     0.0149949
      37.5000     0.0145609
      37.6000     0.0141474
      37.7000     0.0137406
      37.8000     0.0133387
      37.9000     0.0129563
      38.0000     0.0125803
      38.1000     0.0122087
      38.2000     0.0118550
      38.3000     0.0115077
      38.4000     0.0111647
      38.5000     0.0108376
      38.6000     0.0105172
      38.7000     0.0102009
      38.8000    0.00989840
      38.9000    0.00960340
      39.0000    0.00931205
      39.1000    0.00903245
      39.2000    0.00876118
      39.3000    0.00849331
      39.4000    0.00823479
      39.5000    0.00798560
      39.6000    0.00773956
      39.7000    0.00750055
      39.8000    0.00727214
      39.9000    0.00704662
      40.0000    0.00682570
      40.1000    0.00661653
      40.2000    0.00641003
      40.3000    0.00620619
      40.4000    0.00601447
      40.5000    0.00582567
      40.6000    0.00563930
      40.7000    0.00546206
      40.8000    0.00528964
      40.9000    0.00511947
      41.0000    0.00495555
      41.1000    0.00479832
      41.2000    0.00464317
      41.3000    0.00449165
      41.4000    0.00434875
      41.5000    0.00420772
      41.6000    0.00406856
      41.7000    0.00393771
      41.8000    0.00380951
      41.9000    0.00368302
      42.0000    0.00356207
      42.1000    0.00344586
      42.2000    0.00333121
      42.3000    0.00321923
      42.4000    0.00311395
      42.5000    0.00301009
      42.6000    0.00290763
      42.7000    0.00281114
      42.8000    0.00271718
      42.9000    0.00262449
      43.0000    0.00253509
      43.1000    0.00245026
      43.2000    0.00236659
      43.3000    0.00228407
      43.4000    0.00722307
      43.5000     0.0164570
      43.6000     0.0343205
      43.7000     0.0584599
      43.8000     0.0759103
      43.9000     0.0791145
      44.0000     0.0768508
      44.1000     0.0695103
      44.2000     0.0678353
      44.3000     0.0666493
      44.4000     0.0654869
      44.5000     0.0643544
      44.6000     0.0632256
      44.7000     0.0621003
      44.8000     0.0610177
      44.9000     0.0599442
      45.0000     0.0588741
      45.1000     0.0578203
      45.2000     0.0568006
      45.3000     0.0557842
      45.4000     0.0547711
      45.5000     0.0537899
      45.6000     0.0528252
      45.7000     0.0518638
      45.8000     0.0509070
      45.9000     0.0499929
      46.0000     0.0490817
      46.1000     0.0481734
      46.2000     0.0473228
      46.3000     0.0465691
      46.4000     0.0458178
      46.5000     0.0450690
      46.6000     0.0443566
      46.7000     0.0436636
      46.8000     0.0429729
      46.9000     0.0422843
      47.0000     0.0416442
      47.1000     0.0410094
      47.2000     0.0403766
      47.3000     0.0397509
      47.4000     0.0391510
      47.5000     0.0385531
      47.6000     0.0379570
      47.7000     0.0373717
      47.8000     0.0368021
      47.9000     0.0362343
      48.0000     0.0356684
      48.1000     0.0351169
      48.2000     0.0345769
      48.3000     0.0340387
      48.4000     0.0335021
      48.5000     0.0329823
      48.6000     0.0324701
      48.7000     0.0319596
      48.8000     0.0314506
      48.9000     0.0309608
      49.0000     0.0304759
      49.1000     0.0299927
      49.2000     0.0295110
      49.3000     0.0290493
      49.4000     0.0285907
      49.5000     0.0281335
      49.6000     0.0276777
      49.7000     0.0272422
      49.8000     0.0268085
      49.9000     0.0263762
      50.0000     0.0259457
      50.1000     0.0255308
      50.2000     0.0251274
      50.3000     0.0247291
      50.4000     0.0243365
      50.5000     0.0239499
      50.6000     0.0235689
      50.7000     0.0231933
      50.8000     0.0228224
      50.9000     0.0224573
      51.0000     0.0220983
      51.1000     0.0217450
      51.2000     0.0213965
      51.3000     0.0210530
      51.4000     0.0207151
      51.5000     0.0203818
      51.6000     0.0200529
      51.7000     0.0197285
      51.8000     0.0194066
      51.9000     0.0190892
      52.0000     0.0187766
      52.1000     0.0184690
      52.2000     0.0181653
      52.3000     0.0178657
      52.4000     0.0175712
      52.5000     0.0172811
      52.6000     0.0169946
      52.7000     0.0167119
      52.8000     0.0164330
      52.9000     0.0161586
      53.0000     0.0158886
      53.1000     0.0156224
      53.2000     0.0153605
      53.3000     0.0151023
      53.4000     0.0148479
      53.5000     0.0145975
      53.6000     0.0143504
      53.7000     0.0141069
      53.8000     0.0138673
      53.9000     0.0136313
      54.0000     0.0133993
      54.1000     0.0131713
      54.2000     0.0129462
      54.3000     0.0127242
      54.4000     0.0125058
      54.5000     0.0122908
      54.6000     0.0120792
      54.7000     0.0118710
      54.8000     0.0116660
      54.9000     0.0114641
      55.0000     0.0112655
      55.1000     0.0110698
      55.2000     0.0108676
      55.3000     0.0106598
      55.4000     0.0104553
      55.5000     0.0102541
      55.6000     0.0100566
      55.7000    0.00986253
      55.8000    0.00967163
      55.9000    0.00948410
      56.0000    0.00930105
      56.1000    0.00911764
      56.2000    0.00893442
      56.3000    0.00875481
      56.4000    0.00857828
      56.5000    0.00840466
      56.6000    0.00823406
      56.7000    0.00806674
      56.8000    0.00790238
      56.9000    0.00774126
      57.0000    0.00758338
      57.1000    0.00742838
      57.2000    0.00727590
      57.3000    0.00712592
      57.4000    0.00697894
      57.5000    0.00683480
      57.6000    0.00669325
      57.7000    0.00655420
      57.8000    0.00641796
      57.9000    0.00628425
      58.0000    0.00615298
      58.1000    0.00602408
      58.2000    0.00589785
      58.3000    0.00577400
      58.4000    0.00565233
      58.5000    0.00553283
      58.6000    0.00541574
      58.7000    0.00530101
      58.8000    0.00518848
      58.9000    0.00507799
      59.0000    0.00496952
      59.1000    0.00486320
      59.2000    0.00475886
      59.3000    0.00465657
      59.4000    0.00455638
      59.5000    0.00445831
      59.6000    0.00436211
      59.7000    0.00426760
      59.8000    0.00417483
      59.9000    0.00408387
      60.0000    0.00399492
      60.1000    0.00390773
      60.2000    0.00382225
      60.3000    0.00373842
      60.4000    0.00365621
      60.5000    0.00357576
      60.6000    0.00349685
      60.7000    0.00341944
      60.8000    0.00334357
      60.9000    0.00326917
      61.0000    0.00319629
      61.1000    0.00312489
      61.2000    0.00305494
      61.3000    0.00298645
      61.4000    0.00291936
      61.5000    0.00285362
      61.6000    0.00278924
      61.7000    0.00272616
      61.8000    0.00266470
      61.9000    0.00260465
      62.0000    0.00254584
      62.1000    0.00248828
      62.2000    0.00243203
      62.3000    0.00237691
      62.4000    0.00232288
      62.5000    0.00226993
      62.6000    0.00221805
      62.7000    0.00216722
      62.8000    0.00211766
      62.9000    0.00206918
      63.0000    0.00202172
      63.1000    0.00197527
      63.2000    0.00192976
      63.3000    0.00188518
      63.4000    0.00184150
      63.5000    0.00179881
      63.6000    0.00175704
      63.7000    0.00171616
      63.8000    0.00167618
      63.9000    0.00163706
      64.0000    0.00159877
      64.1000    0.00156129
      64.2000    0.00152465
      64.3000    0.00148881
      64.4000    0.00145375
      64.5000    0.00141945
      64.6000    0.00138588
      64.7000    0.00135301
      64.8000    0.00132085
      64.9000    0.00128937
      65.0000    0.00125859
      65.1000    0.00122855
      65.2000    0.00119920
      65.3000    0.00117048
      65.4000    0.00114240
      65.5000    0.00111490
      65.6000    0.00108798
      65.7000    0.00106166
      65.8000    0.00103595
      65.9000    0.00101084
      66.0000   0.000986315
      66.1000   0.000962385
      66.2000   0.000938992
      66.3000   0.000916107
      66.4000   0.000893711
      66.5000   0.000871804
      66.6000   0.000850388
      66.7000   0.000829471
      66.8000   0.000809051
      66.9000   0.000789222
      67.0000   0.000769960
      67.1000   0.000751142
      67.2000   0.000732744
      67.3000   0.000714775
      67.4000   0.000697212
      67.5000   0.000680055
      67.6000   0.000663295
      67.7000   0.000646922
      67.8000   0.000630902
      67.9000   0.000615209
      68.0000   0.000599937
      68.1000   0.000585093
      68.2000   0.000570586
      68.3000   0.000556424
      68.4000   0.000542603
      68.5000   0.000529110
      68.6000   0.000515927
      68.7000   0.000503042
      68.8000   0.000490448
      68.9000   0.000478271
      69.0000   0.000467114
      69.1000   0.000457642
      69.2000   0.000449165
      69.3000   0.000440928
      69.4000   0.000433004
      69.5000   0.000425023
      69.6000   0.000416910
      69.7000   0.000409101
      69.8000   0.000401634
      69.9000   0.000394305
      70.0000   0.000387096
      70.1000   0.000379910
      70.2000   0.000373327
      70.3000   0.000367331
      70.4000   0.000361406
      70.5000   0.000355632
      70.6000   0.000349994
      70.7000   0.000344443
      70.8000   0.000338969
      70.9000   0.000333426
      71.0000   0.000327830
      71.1000   0.000322482
      71.2000   0.000317374
      71.3000   0.000312046
      71.4000   0.000306440
      71.5000   0.000301226
      71.6000   0.000296567
      71.7000   0.000291903
      71.8000   0.000287143
      71.9000   0.000282548
      72.0000   0.000278263
