Filter Al-poly
observation_date 22-Sept-2010 22:40:45
wavelength effective area 
      1.00000   2.78459e-10
      1.10000   7.94919e-10
      1.20000   2.06649e-09
      1.30000   4.94138e-09
      1.40000   1.12123e-08
      1.50000   2.39202e-08
      1.60000   4.84238e-08
      1.70000   9.40082e-08
      1.80000   1.75018e-07
      1.90000   3.14563e-07
      2.00000   5.46870e-07
      2.10000   9.23701e-07
      2.20000   1.52311e-06
      2.30000   2.44845e-06
      2.40000   3.84402e-06
      2.50000   5.87481e-06
      2.60000   8.96575e-06
      2.70000   1.33675e-05
      2.80000   1.95493e-05
      2.90000   2.82964e-05
      3.00000   4.03184e-05
      3.10000   5.67101e-05
      3.20000   7.88962e-05
      3.30000   0.000108647
      3.40000   0.000148059
      3.50000   0.000199817
      3.60000   0.000268433
      3.70000   0.000356787
      3.80000   0.000472265
      3.90000   0.000621661
      4.00000   0.000813240
      4.10000    0.00105895
      4.20000    0.00137399
      4.30000    0.00177773
      4.40000    0.00229403
      4.50000    0.00295221
      4.60000    0.00378655
      4.70000    0.00485666
      4.80000    0.00622298
      4.90000    0.00787133
      5.00000     0.0102188
      5.10000     0.0130796
      5.20000     0.0167915
      5.30000     0.0213750
      5.40000     0.0271669
      5.50000     0.0345897
      5.60000     0.0426910
      5.70000     0.0555113
      5.80000     0.0651027
      5.90000     0.0994401
      6.00000      0.133727
      6.10000      0.170990
      6.20000      0.210086
      6.30000      0.247426
      6.40000      0.279525
      6.50000      0.303234
      6.60000      0.314077
      6.70000      0.324088
      6.80000      0.324737
      6.90000      0.426329
      7.00000      0.463970
      7.10000      0.491074
      7.20000      0.512749
      7.30000      0.530593
      7.40000      0.544377
      7.50000      0.555494
      7.60000      0.564051
      7.70000      0.568549
      7.80000      0.567866
      7.90000      0.567881
      8.00000      0.958659
      8.10000       1.05503
      8.20000       1.07809
      8.30000       1.09651
      8.40000       1.11090
      8.50000       1.12372
      8.60000       1.13463
      8.70000       1.14434
      8.80000       1.15248
      8.90000       1.15958
      9.00000       1.16555
      9.10000       1.17044
      9.20000       1.17444
      9.30000       1.17745
      9.40000       1.17963
      9.50000       1.18102
      9.60000       1.18157
      9.70000       1.18138
      9.80000       1.18059
      9.90000       1.17922
      10.0000       1.17733
      10.1000       1.17494
      10.2000       1.17208
      10.3000       1.16867
      10.4000       1.16475
      10.5000       1.16034
      10.6000       1.15548
      10.7000       1.15020
      10.8000       1.14449
      10.9000       1.13838
      11.0000       1.13189
      11.1000       1.12505
      11.2000       1.11786
      11.3000       1.11035
      11.4000       1.10252
      11.5000       1.09434
      11.6000       1.08583
      11.7000       1.07690
      11.8000       1.06766
      11.9000       1.05792
      12.0000       1.04656
      12.1000       1.03887
      12.2000       1.04932
      12.3000       1.04879
      12.4000       1.04048
      12.5000       1.03136
      12.6000       1.02182
      12.7000       1.01203
      12.8000       1.00204
      12.9000      0.991860
      13.0000      0.981550
      13.1000      0.971145
      13.2000      0.960670
      13.3000      0.950143
      13.4000      0.939593
      13.5000      0.929177
      13.6000      0.918866
      13.7000      0.908553
      13.8000      0.898225
      13.9000      0.887922
      14.0000      0.877638
      14.1000      0.867345
      14.2000      0.857045
      14.3000      0.846727
      14.4000      0.836362
      14.5000      0.825962
      14.6000      0.815511
      14.7000      0.805020
      14.8000      0.794500
      14.9000      0.783956
      15.0000      0.773401
      15.1000      0.762861
      15.2000      0.752334
      15.3000      0.741829
      15.4000      0.731347
      15.5000      0.720898
      15.6000      0.710529
      15.7000      0.700197
      15.8000      0.689957
      15.9000      0.679805
      16.0000      0.669735
      16.1000      0.659759
      16.2000      0.649898
      16.3000      0.640100
      16.4000      0.630369
      16.5000      0.620700
      16.6000      0.611084
      16.7000      0.601520
      16.8000      0.592010
      16.9000      0.582555
      17.0000      0.573156
      17.1000      0.563811
      17.2000      0.554514
      17.3000      0.545277
      17.4000      0.536240
      17.5000      0.527427
      17.6000      0.518781
      17.7000      0.510368
      17.8000      0.502314
      17.9000      0.494339
      18.0000      0.486372
      18.1000      0.478445
      18.2000      0.470502
      18.3000      0.462515
      18.4000      0.454434
      18.5000      0.446290
      18.6000      0.438074
      18.7000      0.429716
      18.8000      0.421415
      18.9000      0.413175
      19.0000      0.404994
      19.1000      0.396912
      19.2000      0.388920
      19.3000      0.381042
      19.4000      0.373284
      19.5000      0.365632
      19.6000      0.358147
      19.7000      0.350762
      19.8000      0.343471
      19.9000      0.336316
      20.0000      0.329237
      20.1000      0.322240
      20.2000      0.315306
      20.3000      0.308434
      20.4000      0.301649
      20.5000      0.294912
      20.6000      0.288223
      20.7000      0.281609
      20.8000      0.275045
      20.9000      0.268518
      21.0000      0.262054
      21.1000      0.255659
      21.2000      0.249258
      21.3000      0.242904
      21.4000      0.236618
      21.5000      0.230326
      21.6000      0.224023
      21.7000      0.217721
      21.8000      0.211446
      21.9000      0.204928
      22.0000      0.198387
      22.1000      0.191713
      22.2000      0.184619
      22.3000      0.177174
      22.4000      0.166868
      22.5000      0.155739
      22.6000      0.132782
      22.7000      0.121092
      22.8000      0.164230
      22.9000      0.218237
      23.0000      0.278718
      23.1000      0.317835
      23.2000      0.336155
      23.3000      0.340393
      23.4000      0.337345
      23.5000      0.333838
      23.6000      0.330235
      23.7000      0.325720
      23.8000      0.321155
      23.9000      0.316461
      24.0000      0.311759
      24.1000      0.306831
      24.2000      0.301926
      24.3000      0.297008
      24.4000      0.292099
      24.5000      0.287152
      24.6000      0.282239
      24.7000      0.277362
      24.8000      0.272514
      24.9000      0.267693
      25.0000      0.262915
      25.1000      0.258186
      25.2000      0.253497
      25.3000      0.248851
      25.4000      0.244254
      25.5000      0.239719
      25.6000      0.235241
      25.7000      0.230833
      25.8000      0.226470
      25.9000      0.222174
      26.0000      0.217917
      26.1000      0.213719
      26.2000      0.209559
      26.3000      0.205474
      26.4000      0.201422
      26.5000      0.197434
      26.6000      0.193479
      26.7000      0.189599
      26.8000      0.185765
      26.9000      0.181980
      27.0000      0.178230
      27.1000      0.174498
      27.2000      0.170790
      27.3000      0.167505
      27.4000      0.164732
      27.5000      0.161847
      27.6000      0.158606
      27.7000      0.155387
      27.8000      0.152136
      27.9000      0.148912
      28.0000      0.145762
      28.1000      0.142647
      28.2000      0.139600
      28.3000      0.136606
      28.4000      0.133658
      28.5000      0.130777
      28.6000      0.127927
      28.7000      0.125196
      28.8000      0.122488
      28.9000      0.119843
      29.0000      0.117234
      29.1000      0.114670
      29.2000      0.112154
      29.3000      0.109668
      29.4000      0.107248
      29.5000      0.104850
      29.6000      0.102511
      29.7000      0.100205
      29.8000     0.0979402
      29.9000     0.0957246
      30.0000     0.0935315
      30.1000     0.0914036
      30.2000     0.0892955
      30.3000     0.0907660
      30.4000     0.0942452
      30.5000     0.0964993
      30.6000     0.0943554
      30.7000     0.0922318
      30.8000     0.0901633
      30.9000     0.0881249
      31.0000     0.0861196
      31.1000     0.0841641
      31.2000     0.0822275
      31.3000     0.0803457
      31.4000     0.0784899
      31.5000     0.0766660
      31.6000     0.0748888
      31.7000     0.0731290
      31.8000     0.0714205
      31.9000     0.0697374
      32.0000     0.0680816
      32.1000     0.0664731
      32.2000     0.0648807
      32.3000     0.0633331
      32.4000     0.0618138
      32.5000     0.0603174
      32.6000     0.0588968
      32.7000     0.0574943
      32.8000     0.0561255
      32.9000     0.0547872
      33.0000     0.0534624
      33.1000     0.0522200
      33.2000     0.0510035
      33.3000     0.0498090
      33.4000     0.0486477
      33.5000     0.0474987
      33.6000     0.0463802
      33.7000     0.0452864
      33.8000     0.0442033
      33.9000     0.0431585
      34.0000     0.0421277
      34.1000     0.0411175
      34.2000     0.0401352
      34.3000     0.0391625
      34.4000     0.0382121
      34.5000     0.0372873
      34.6000     0.0363716
      34.7000     0.0354660
      34.8000     0.0345699
      34.9000     0.0336828
      35.0000     0.0328310
      35.1000     0.0319905
      35.2000     0.0311615
      35.3000     0.0303657
      35.4000     0.0295780
      35.5000     0.0288061
      35.6000     0.0280614
      35.7000     0.0273242
      35.8000     0.0266061
      35.9000     0.0259097
      36.0000     0.0252205
      36.1000     0.0245529
      36.2000     0.0239027
      36.3000     0.0232591
      36.4000     0.0226387
      36.5000     0.0220320
      36.6000     0.0214317
      36.7000     0.0208555
      36.8000     0.0202903
      36.9000     0.0197311
      37.0000     0.0191961
      37.1000     0.0186702
      37.2000     0.0181499
      37.3000     0.0176535
      37.4000     0.0171648
      37.5000     0.0166814
      37.6000     0.0162209
      37.7000     0.0157672
      37.8000     0.0153186
      37.9000     0.0148915
      38.0000     0.0144711
      38.1000     0.0140553
      38.2000     0.0136594
      38.3000     0.0132702
      38.4000     0.0128853
      38.5000     0.0125182
      38.6000     0.0121584
      38.7000     0.0118025
      38.8000     0.0114622
      38.9000     0.0111299
      39.0000     0.0108014
      39.1000     0.0104860
      39.2000     0.0101797
      39.3000    0.00987689
      39.4000    0.00958447
      39.5000    0.00930244
      39.6000    0.00902361
      39.7000    0.00875251
      39.8000    0.00849333
      39.9000    0.00823710
      40.0000    0.00798582
      40.1000    0.00774787
      40.2000    0.00751265
      40.3000    0.00728016
      40.4000    0.00706149
      40.5000    0.00684589
      40.6000    0.00663277
      40.7000    0.00643004
      40.8000    0.00623264
      40.9000    0.00603755
      41.0000    0.00584950
      41.1000    0.00566902
      41.2000    0.00549068
      41.3000    0.00531632
      41.4000    0.00515187
      41.5000    0.00498935
      41.6000    0.00482876
      41.7000    0.00467776
      41.8000    0.00452964
      41.9000    0.00438330
      42.0000    0.00424327
      42.1000    0.00410867
      42.2000    0.00397567
      42.3000    0.00384561
      42.4000    0.00372334
      42.5000    0.00360254
      42.6000    0.00348319
      42.7000    0.00337079
      42.8000    0.00326122
      42.9000    0.00315296
      43.0000    0.00304846
      43.1000    0.00294927
      43.2000    0.00285130
      43.3000    0.00275453
      43.4000    0.00871924
      43.5000     0.0193019
      43.6000     0.0383427
      43.7000     0.0615451
      43.8000     0.0761890
      43.9000     0.0785728
      44.0000     0.0764905
      44.1000     0.0702319
      44.2000     0.0686301
      44.3000     0.0674355
      44.4000     0.0662646
      44.5000     0.0651239
      44.6000     0.0639867
      44.7000     0.0628530
      44.8000     0.0617623
      44.9000     0.0606806
      45.0000     0.0596023
      45.1000     0.0585402
      45.2000     0.0575126
      45.3000     0.0564882
      45.4000     0.0554669
      45.5000     0.0544777
      45.6000     0.0535052
      45.7000     0.0525358
      45.8000     0.0515709
      45.9000     0.0506492
      46.0000     0.0497302
      46.1000     0.0488141
      46.2000     0.0479563
      46.3000     0.0471966
      46.4000     0.0464393
      46.5000     0.0456843
      46.6000     0.0449662
      46.7000     0.0442676
      46.8000     0.0435711
      46.9000     0.0428768
      47.0000     0.0422315
      47.1000     0.0415915
      47.2000     0.0409534
      47.3000     0.0403224
      47.4000     0.0397174
      47.5000     0.0391144
      47.6000     0.0385132
      47.7000     0.0379227
      47.8000     0.0373482
      47.9000     0.0367754
      48.0000     0.0362045
      48.1000     0.0356481
      48.2000     0.0351032
      48.3000     0.0345600
      48.4000     0.0340185
      48.5000     0.0334939
      48.6000     0.0329769
      48.7000     0.0324616
      48.8000     0.0319477
      48.9000     0.0314532
      49.0000     0.0309636
      49.1000     0.0304756
      49.2000     0.0299891
      49.3000     0.0295228
      49.4000     0.0290595
      49.5000     0.0285977
      49.6000     0.0281372
      49.7000     0.0276973
      49.8000     0.0272591
      49.9000     0.0268222
      50.0000     0.0263872
      50.1000     0.0259678
      50.2000     0.0255599
      50.3000     0.0251569
      50.4000     0.0247598
      50.5000     0.0243687
      50.6000     0.0239832
      50.7000     0.0236032
      50.8000     0.0232278
      50.9000     0.0228583
      51.0000     0.0224949
      51.1000     0.0221372
      51.2000     0.0217844
      51.3000     0.0214365
      51.4000     0.0210943
      51.5000     0.0207568
      51.6000     0.0204238
      51.7000     0.0200951
      51.8000     0.0197691
      51.9000     0.0194477
      52.0000     0.0191311
      52.1000     0.0188195
      52.2000     0.0185119
      52.3000     0.0182082
      52.4000     0.0179099
      52.5000     0.0176159
      52.6000     0.0173256
      52.7000     0.0170389
      52.8000     0.0167563
      52.9000     0.0164781
      53.0000     0.0162044
      53.1000     0.0159345
      53.2000     0.0156689
      53.3000     0.0154070
      53.4000     0.0151491
      53.5000     0.0148951
      53.6000     0.0146444
      53.7000     0.0143974
      53.8000     0.0141544
      53.9000     0.0139149
      54.0000     0.0136795
      54.1000     0.0134482
      54.2000     0.0132198
      54.3000     0.0129944
      54.4000     0.0127727
      54.5000     0.0125545
      54.6000     0.0123396
      54.7000     0.0121282
      54.8000     0.0119200
      54.9000     0.0117150
      55.0000     0.0115132
      55.1000     0.0113144
      55.2000     0.0111089
      55.3000     0.0108977
      55.4000     0.0106898
      55.5000     0.0104852
      55.6000     0.0102844
      55.7000     0.0100870
      55.8000    0.00989285
      55.9000    0.00970212
      56.0000    0.00951592
      56.1000    0.00932932
      56.2000    0.00914290
      56.3000    0.00896014
      56.4000    0.00878049
      56.5000    0.00860377
      56.6000    0.00843011
      56.7000    0.00825977
      56.8000    0.00809241
      56.9000    0.00792833
      57.0000    0.00776755
      57.1000    0.00760968
      57.2000    0.00745435
      57.3000    0.00730155
      57.4000    0.00715179
      57.5000    0.00700491
      57.6000    0.00686065
      57.7000    0.00671892
      57.8000    0.00658005
      57.9000    0.00644373
      58.0000    0.00630990
      58.1000    0.00617846
      58.2000    0.00604974
      58.3000    0.00592343
      58.4000    0.00579933
      58.5000    0.00567743
      58.6000    0.00555797
      58.7000    0.00544092
      58.8000    0.00532608
      58.9000    0.00521332
      59.0000    0.00510260
      59.1000    0.00499406
      59.2000    0.00488753
      59.3000    0.00478308
      59.4000    0.00468076
      59.5000    0.00458059
      59.6000    0.00448231
      59.7000    0.00438575
      59.8000    0.00429095
      59.9000    0.00419800
      60.0000    0.00410709
      60.1000    0.00401796
      60.2000    0.00393057
      60.3000    0.00384486
      60.4000    0.00376079
      60.5000    0.00367852
      60.6000    0.00359781
      60.7000    0.00351863
      60.8000    0.00344101
      60.9000    0.00336488
      61.0000    0.00329031
      61.1000    0.00321724
      61.2000    0.00314565
      61.3000    0.00307554
      61.4000    0.00300686
      61.5000    0.00293955
      61.6000    0.00287362
      61.7000    0.00280901
      61.8000    0.00274606
      61.9000    0.00268454
      62.0000    0.00262429
      62.1000    0.00256531
      62.2000    0.00250766
      62.3000    0.00245116
      62.4000    0.00239577
      62.5000    0.00234148
      62.6000    0.00228827
      62.7000    0.00223615
      62.8000    0.00218531
      62.9000    0.00213557
      63.0000    0.00208689
      63.1000    0.00203922
      63.2000    0.00199252
      63.3000    0.00194676
      63.4000    0.00190193
      63.5000    0.00185810
      63.6000    0.00181521
      63.7000    0.00177324
      63.8000    0.00173217
      63.9000    0.00169199
      64.0000    0.00165266
      64.1000    0.00161416
      64.2000    0.00157651
      64.3000    0.00153968
      64.4000    0.00150364
      64.5000    0.00146838
      64.6000    0.00143387
      64.7000    0.00140007
      64.8000    0.00136699
      64.9000    0.00133461
      65.0000    0.00130295
      65.1000    0.00127204
      65.2000    0.00124183
      65.3000    0.00121228
      65.4000    0.00118337
      65.5000    0.00115506
      65.6000    0.00112734
      65.7000    0.00110024
      65.8000    0.00107375
      65.9000    0.00104788
      66.0000    0.00102261
      66.1000   0.000997954
      66.2000   0.000973844
      66.3000   0.000950256
      66.4000   0.000927168
      66.5000   0.000904581
      66.6000   0.000882497
      66.7000   0.000860925
      66.8000   0.000839863
      66.9000   0.000819402
      67.0000   0.000799519
      67.1000   0.000780090
      67.2000   0.000761093
      67.3000   0.000742537
      67.4000   0.000724396
      67.5000   0.000706673
      67.6000   0.000689358
      67.7000   0.000672440
      67.8000   0.000655883
      67.9000   0.000639663
      68.0000   0.000623872
      68.1000   0.000608517
      68.2000   0.000593508
      68.3000   0.000578856
      68.4000   0.000564553
      68.5000   0.000550588
      68.6000   0.000536942
      68.7000   0.000523603
      68.8000   0.000510562
      68.9000   0.000497952
      69.0000   0.000486401
      69.1000   0.000476601
      69.2000   0.000467832
      69.3000   0.000459312
      69.4000   0.000451117
      69.5000   0.000442859
      69.6000   0.000434462
      69.7000   0.000426380
      69.8000   0.000418653
      69.9000   0.000411067
      70.0000   0.000403605
      70.1000   0.000396166
      70.2000   0.000389353
      70.3000   0.000383151
      70.4000   0.000377022
      70.5000   0.000371048
      70.6000   0.000365216
      70.7000   0.000359472
      70.8000   0.000353808
      70.9000   0.000348070
      71.0000   0.000342275
      71.1000   0.000336738
      71.2000   0.000331449
      71.3000   0.000325930
      71.4000   0.000320119
      71.5000   0.000314716
      71.6000   0.000309890
      71.7000   0.000305060
      71.8000   0.000300126
      71.9000   0.000295364
      72.0000   0.000290924
